Power [kW]
1271.1
1361.1
1273.4
1361.1
1271.1
1361.1
1275.8
1365.8
1189.1
1334.5
1622.5
1707.8
1228.1
1315.8
1608.4
1698.4
1300.8
1330.6
1240.6
1333
1243
1335.3
1247.7
1340
1250
1342.3
1252.3
1342.3
1252.3
1342.3
1252.3
1340
1170.3
1313.4
1603.8
1691.4
1214.1
1302.5
1599.1
1691.4
1296.1
1325.9
1238.3
1330.6
1243
1337.7
1247.7
1344.7
1252.3
1351.7
1252.3
1344.7
1254.7
1349.4
1264.1
1340
1170.3
1258
1475.6
1565.6
1165.6
1255.6
1482.7
1575
1247.7
1330.6
1240.6
1330.6
1238.3
1330.6
1235.9
1325.9
1235.9
1325.9
1412.8
1325.9
1235.9
1504.9
1414.7
1509.2
1347.1
1437.1
1670.6
1760.6
1486
1582.7
1802.7
1906.2
1581.2
1671.2
1581.2
1664.4
1581.2
1530
1435.6
1507.6
1225
1315
1226.6
1318.9
1231.3
1323.6
1235.9
1328.3
1163.3
1315.8
1613.1
1700.8
1232.8
1315.8
1615.5
1712.5
1317.2
1347
1259.4
1356.4
1268.8
1363.4
1275.8
1370.5
1280.5
1372.8
1282.8
1372.8
1282.8
1372.8
1282.8
1372.8
1210.2
1362.7
1657.7
1745.3
1270.3
1355.6
1650.6
1740.6
1343
1372.8
1282.8
1375.2
1285.2
1375.2
1285.2
1384.5
1287.5
1377.5
1285.2
1375.2
1282.8
1375.2
1282.8
1370.5
1203.1
1353.3
1643.6
1735.9
1258.6
1348.6
1655.3
1745.3
1347.7
1379.8
1294.5
1391.6
1303.9
1396.3
1308.6
1398.6
1310.9
1400.9
1310.9
1403.3
1310.9
1400.9
1310.9
1398.6
1226.6
1372
1662.3
1747.7
1270.3
1358
1653
1745.3
1347.7
1379.8
1292.2
1382.2
1292.2
1384.5
1289.8
1377.5
1285.2
1372.8
1280.5
1368.1
1273.4
1363.4
1268.8
1368.1
1203.1
1348.6
1638.9
1717.2
1242.2
1329.8
1627.2
1719.5
1321.9
1349.4
1261.7
1354.1
1268.8
1361.1
1273.4
1368.1
1280.5
1370.5
1285.2
1377.5
1289.8
1379.8
1292.2
1382.2
1214.8
1300.2
1517.8
1605.5
1203.1
1290.8
1508.4
1600.8
1280.5
1372.8
1285.2
1377.5
1287.5
1379.8
1292.2
1382.2
1289.8
1379.8
1287.5
1377.5
1287.5
1375.2
1287.5
1377.5
1200.8
1286.1
1501.4
1582
1177.3
1255.6
1475.6
1568
1245.3
1335.3
1245.3
1335.3
1247.7
1340
1247.7
1335.3
1247.7
1335.3
1243
1337.7
1247.7
1335.3
1247.7
1337.7
1175
1325.2
1620.2
1710.2
1232.8
1320.5
1615.5
1705.5
1305.5
1330.6
1240.6
1323.6
1238.3
1328.3
1240.6
1330.6
1240.6
1333
1245.3
1335.3
1247.7
1344.7
1261.7
1354.1
1186.7
1341.6
1636.6
1726.6
1251.6
1341.6
1641.3
1735.9
1340.6
1370.5
1282.8
1375.2
1289.8
1379.8
1292.2
1384.5
1294.5
1384.5
1294.5
1384.5
1294.5
1384.5
1294.5
1379.8
1214.8
1355.6
1641.3
1731.3
1244.5
1334.5
1627.2
1719.5
1319.5
1347
1259.4
1349.4
1257
1347
1257
1349.4
1261.7
1351.7
1266.4
1354.1
1261.7
1354.1
1264.1
1354.1
1189.1
1341.6
1631.9
1714.8
1235.2
1322.8
1617.8
1710.2
1314.8
1342.3
1257
1349.4
1259.4
1349.4
1264.1
1354.1
1264.1
1354.1
1264.1
1351.7
1264.1
1354.1
1264.1
1349.4
1182
1322.8
1610.8
1693.8
1218.8
1306.4
1610.8
1700.8
1312.5
1347
1261.7
1356.4
1271.1
1365.8
1280.5
1372.8
1285.2
1375.2
1287.5
1377.5
1289.8
1379.8
1289.8
1377.5
1210.2
1293.1
1508.4
1596.1
1191.4
1279.1
1494.4
1584.4
1264.1
1351.7
1264.1
1354.1
1266.4
1354.1
1264.1
1354.1
1264.1
1358.8
1271.1
1361.1
1261.7
1349.4
1261.7
1351.7
1182
1272
1487.3
1572.7
1172.7
1258
1478
1565.6
1240.6
1325.9
1238.3
1325.9
1240.6
1325.9
1238.3
1330.6
1243
1333
1243
1333
1243
1335.3
1245.3
1333
1165.6
1313.4
1606.1
1691.4
1221.1
1306.4
1603.8
1696.1
1296.1
1325.9
1235.9
1325.9
1238.3
1325.9
1238.3
1328.3
1238.3
1328.3
1240.6
1335.3
1247.7
1340
1250
1340
1170.3
1318.1
1608.4
1693.8
1221.1
1311.1
1603.8
1696.1
1298.4
1328.3
1238.3
1330.6
1245.3
1340
1250
1342.3
1259.4
1351.7
1261.7
1354.1
1271.1
1363.4
1273.4
1361.1
1193.8
1341.6
1634.2
1719.5
1237.5
1327.5
1620.2
1710.2
1312.5
1337.7
1252.3
1340
1250
1344.7
1254.7
1342.3
1254.7
1342.3
1252.3
1342.3
1252.3
1344.7
1257
1342.3
1175
1329.8
1620.2
1707.8
1225.8
1315.8
1608.4
1698.4
1300.8
1330.6
1243
1335.3
1250
1342.3
1254.7
1347
1259.4
1351.7
1259.4
1354.1
1266.4
1358.8
1264.1
1354.1
1182
1329.8
1620.2
1705.5
1225.8
1313.4
1608.4
1700.8
1303.1
1333
1240.6
1333
1243
1333
1245.3
1335.3
1247.7
1337.7
1252.3
1342.3
1252.3
1342.3
1252.3
1337.7
1175
1262.7
1482.7
1570.3
1168
1255.6
1475.6
1565.6
1240.6
1328.3
1240.6
1330.6
1243
1335.3
1245.3
1335.3
1245.3
1335.3
1247.7
1340
1250
1342.3
1250
1337.7
1168
1253.3
1468.6
1556.3
1153.9
1243.9
1463.9
1556.3
1240.6
1333
1245.3
1337.7
1252.3
1342.3
1257
1349.4
1261.7
1354.1
1268.8
1361.1
1268.8
1365.8
1271.1
1361.1
1193.8
1346.3
1641.3
1731.3
1260.9
1350.9
1650.6
1738.3
1340.6
1358.8
1268.8
1358.8
1266.4
1358.8
1268.8
1363.4
1273.4
1363.4
1275.8
1368.1
1280.5
1372.8
1278.1
1365.8
1203.1
1348.6
1641.3
1726.6
1251.6
1336.9
1631.9
1724.2
1324.2
1354.1
1266.4
1358.8
1273.4
1368.1
1280.5
1372.8
1285.2
1379.8
1289.8
1382.2
1289.8
1379.8
1287.5
1372.8
1205.5
1350.9
1641.3
1724.2
1246.9
1332.2
1622.5
1714.8
1314.8
1347
1259.4
1351.7
1261.7
1358.8
1268.8
1363.4
1278.1
1377.5
1285.2
1379.8
1287.5
1375.2
1287.5
1370.5
1210.2
1350.9
1636.6
1721.9
1246.9
1334.5
1629.5
1719.5
1317.2
1342.3
1252.3
1342.3
1252.3
1342.3
1252.3
1342.3
1257
1347
1252.3
1342.3
1250
1342.3
1252.3
1344.7
1182
1329.8
1617.8
1707.8
1230.5
1318.1
1610.8
1705.5
1312.5
1347
1264.1
1363.4
1280.5
1372.8
1285.2
1375.2
1287.5
1379.8
1292.2
1382.2
1294.5
1384.5
1296.9
1386.9
1217.2
1304.8
1517.8
1600.8
1198.4
1283.8
1503.8
1591.4
1268.8
1363.4
1273.4
1365.8
1278.1
1370.5
1282.8
1372.8
1285.2
1372.8
1285.2
1372.8
1287.5
1372.8
1282.8
1288.4
1191.4
1272
1489.7
1575
1172.7
1260.3
1480.3
1570.3
1170.3
1335.3
1245.3
1335.3
1247.7
1337.7
1257
1342.3
1247.7
1342.3
1252.3
1340
1247.7
1337.7
1252.3
1272
1182
1334.5
1629.5
1724.2
1251.6
1341.6
1641.3
1731.3
1256.3
1358.8
1275.8
1370.5
1287.5
1382.2
1294.5
1384.5
1294.5
1384.5
1294.5
1384.5
1294.5
1384.5
1294.5
1304.8
1212.5
1362.7
1655.3
1740.6
1260.9
1348.6
1643.6
1733.6
1258.6
1363.4
1275.8
1370.5
1282.8
1372.8
1280.5
1368.1
1282.8
1370.5
1280.5
1368.1
1275.8
1365.8
1273.4
1283.8
1189.1
1334.5
1624.8
1712.5
1235.2
1320.5
1613.1
1698.4
1225.8
1330.6
1240.6
1328.3
1240.6
1325.9
1238.3
1330.6
1240.6
1333
1243
1333
1243
1333
1250
1269.7
1184.4
1339.2
1634.2
1724.2
1249.2
1329.8
1624.8
1721.9
1253.9
1365.8
1282.8
1375.2
1289.8
1382.2
1294.5
1386.9
1299.2
1391.6
1301.6
1393.9
1303.9
1393.9
1306.3
1316.6
1219.5
1367.3
1657.7
1745.3
1265.6
1350.9
1638.9
1726.6
1253.9
1356.4
1266.4
1358.8
1268.8
1363.4
1282.8
1370.5
1282.8
1370.5
1278.1
1361.1
1271.1
1358.8
1271.1
1279.1
1186.7
1274.4
1492
1582
1175
1260.3
1478
1568
1168
1333
1243
1337.7
1247.7
1335.3
1245.3
1335.3
1247.7
1340
1250
1340
1252.3
1340
1250
1267.3
1172.7
1260.3
1478
1568
1170.3
1260.3
1480.3
1568
1172.7
1335.3
1245.3
1333
1245.3
1337.7
1252.3
1344.7
1257
1349.4
1261.7
1351.7
1264.1
1354.1
1264.1
1279.1
1189.1
1341.6
1636.6
1726.6
1253.9
1343.9
1638.9
1728.9
1251.6
1354.1
1266.4
1354.1
1264.1
1354.1
1264.1
1356.4
1266.4
1356.4
1268.8
1358.8
1268.8
1356.4
1266.4
1279.1
1189.1
1336.9
1629.5
1717.2
1237.5
1320.5
1613.1
1703.1
1228.1
1333
1247.7
1340
1254.7
1347
1264.1
1351.7
1264.1
1358.8
1268.8
1363.4
1273.4
1365.8
1275.8
1290.8
1198.4
1346.3
1638.9
1726.6
1246.9
1332.2
1624.8
1712.5
1239.8
1344.7
1257
1349.4
1261.7
1354.1
1264.1
1354.1
1264.1
1351.7
1264.1
1351.7
1261.7
1349.4
1259.4
1274.4
1182
1329.8
1620.2
1705.5
1230.5
1313.4
1610.8
1703.1
1232.8
1337.7
1250
1349.4
1266.4
1361.1
1280.5
1382.2
1296.9
1391.6
1303.9
1396.3
1308.6
1400.9
1310.9
1323.6
1228.9
1376.7
1667
1750
1270.3
1360.3
1653
1740.6
1268
1372.8
1282.8
1377.5
1287.5
1377.5
1289.8
1379.8
1292.2
1382.2
1292.2
1382.2
1289.8
1375.2
1282.8
1293.1
1198.4
1283.8
1499.1
1586.7
1184.4
1272
1496.7
1586.7
1186.7
1351.7
1261.7
1349.4
1261.7
1351.7
1261.7
1358.8
1268.8
1372.8
1287.5
1379.8
1294.5
1386.9
1296.9
1311.9
1217.2
1302.5
1520.2
1610.2
1207.8
1300.2
1520.2
1612.5
1219.5
1389.2
1306.3
1400.9
1315.6
1408
1318
1410.3
1320.3
1410.3
1320.3
1412.7
1322.7
1412.7
1322.7
1333
1238.3
1381.4
1669.4
1752.3
1270.3
1358
1653
1743
1268
1372.8
1280.5
1372.8
1282.8
1372.8
1282.8
1372.8
1282.8
1377.5
1285.2
1384.5
1294.5
1384.5
1294.5
1311.9
1219.5
1367.3
1660
1745.3
1263.3
1346.3
1638.9
1726.6
1253.9
1358.8
1271.1
1361.1
1273.4
1365.8
1278.1
1368.1
1285.2
1375.2
1285.2
1384.5
1285.2
1382.2
1301.6
1300.2
1207.8
1355.6
1641.3
1726.6
1246.9
1334.5
1629.5
1721.9
1246.9
1349.4
1259.4
1351.7
1266.4
1356.4
1266.4
1358.8
1273.4
1368.1
1282.8
1375.2
1289.8
1382.2
1294.5
1309.5
1217.2
1365
1653
1740.6
1263.3
1355.6
1650.6
1743
1275
1382.2
1294.5
1386.9
1299.2
1393.9
1306.3
1400.9
1315.6
1408
1320.3
1412.7
1322.7
1415
1325
1337.7
1243
1390.8
1678.8
1759.4
1277.3
1362.7
1653
1745.3
1270.3
1377.5
1289.8
1382.2
1294.5
1386.9
1299.2
1393.9
1306.3
1393.9
1303.9
1393.9
1301.6
1391.6
1306.3
1311.9
1205.5
1293.1
1508.4
1596.1
1191.4
1279.1
1503.8
1589.1
1191.4
1354.1
1264.1
1354.1
1261.7
1351.7
1257
1342.3
1252.3
1342.3
1252.3
1342.3
1252.3
1342.3
1257
1267.3
1177.3
1265
1478
1565.6
1158.6
1250.9
1466.3
1553.9
1156.3
1323.6
1235.9
1330.6
1238.3
1330.6
1240.6
1333
1243
1335.3
1247.7
1340
1250
1342.3
1264.1
1288.4
1200.8
1355.6
1650.6
1735.9
1260.9
1348.6
1643.6
1738.3
1270.3
1377.5
1292.2
1386.9
1301.6
1393.9
1308.6
1400.9
1310.9
1403.3
1313.3
1405.6
1315.6
1405.6
1315.6
1323.6
1228.9
1376.7
1669.4
1752.3
1272.7
1360.3
1653
1740.6
1263.3
1365.8
1278.1
1368.1
1278.1
1368.1
1282.8
1370.5
1280.5
1370.5
1282.8
1375.2
1287.5
1384.5
1294.5
1295.5
1191.4
1332.2
1622.5
1710.2
1232.8
1320.5
1615.5
1705.5
1230.5
1335.3
1247.7
1342.3
1252.3
1342.3
1259.4
1349.4
1261.7
1354.1
1266.4
1361.1
1275.8
1365.8
1278.1
1293.1
1205.5
1355.6
1648.3
1735.9
1258.6
1348.6
1641.3
1728.9
1251.6
1354.1
1266.4
1358.8
1268.8
1361.1
1273.4
1365.8
1280.5
1372.8
1280.5
1370.5
1282.8
1372.8
1285.2
1297.8
1205.5
1353.3
1645.9
1728.9
1251.6
1336.9
1629.5
1721.9
1246.9
1351.7
1264.1
1358.8
1271.1
1363.4
1275.8
1370.5
1282.8
1375.2
1287.5
1382.2
1292.2
1384.5
1296.9
1307.2
1210.2
1295.5
1510.8
1596.1
1191.4
1276.7
1492
1582
1182
1349.4
1268.8
1361.1
1268.8
1361.1
1273.4
1365.8
1275.8
1370.5
1280.5
1372.8
1280.5
1368.1
1198.4
1286.1
1189.1
1276.7
1494.4
1584.4
1189.1
1283.8
1506.1
1593.8
1193.8
1356.4
1268.8
1356.4
1264.1
1354.1
1264.1
1354.1
1264.1
1354.1
1261.7
1351.7
1259.4
1347
1179.7
1262.7
1172.7
1325.2
1617.8
1705.5
1228.1
1315.8
1610.8
1700.8
1228.1
1335.3
1247.7
1342.3
1254.7
1347
1261.7
1354.1
1268.8
1358.8
1273.4
1365.8
1275.8
1365.8
1198.4
1286.1
1193.8
1341.6
1631.9
1719.5
1242.2
1332.2
1624.8
1719.5
1249.2
1351.7
1261.7
1347
1257
1337.7
1247.7
1337.7
1245.3
1335.3
1245.3
1333
1243
1333
1168
1258
1168
1318.1
1610.8
1698.4
1218.8
1485.6
1780.6
1870.6
1398
1500.2
1410.5
1325.9
1235.9
1325.9
1410.5
1500.5
1233.6
1325.9
1240.6
1333
1247.7
1337.7
1175
1262.7
1182
1339.2
1636.6
1731.3
1256.3
1355.6
1645.9
1735.9
1265.6
1368.1
1278.1
1365.8
1273.4
1365.8
1278.1
1370.5
1285.2
1379.8
1294.5
1386.9
1296.9
1386.9
1221.9
1309.5
1214.8
1358
1653
1733.6
1256.3
1348.6
1638.9
1726.6
1256.3
1363.4
1273.4
1365.8
1280.5
1375.2
1282.8
1375.2
1294.5
1379.8
1294.5
1384.5
1296.9
1391.6
1219.5
1304.8
1203.1
1283.8
1494.4
1579.7
1172.7
1260.3
1478
1563.3
1165.6
1330.6
1245.3
1335.3
1245.3
1335.3
1243
1333
1245.3
1340
1250
1337.7
1250
1347
1175
1262.7
1163.3
1240
1460
1550
1150
1241.6
1460
1550
1150
1315
1225
1325.9
1231.3
1328.3
1240.6
1330.6
1245.3
1335.3
1252.3
1335.3
1238.3
1328.3
1160.9
1246.3
1150
1302.5
1781.2
1871.2
1400.7
1490.7
1785.7
1880.1
1405.1
1494.2
1225
1316.6
1225
1316.6
1231.3
1321.3
1235.9
1325.9
1238.3
1335.3
1240.6
1337.7
1170.3
1246.3
1150
1481.7
1785.7
1880.1
1414.1
1504.1
1803.6
1884.6
1418.6
1516.6
1431.1
1512.1
1422.1
1516.6
1422.1
1516.6
1422.1
1516.6
1426.6
1516.6
1422.1
1512.1
1342.1
1446.1
1360.6
1522
1812.5
1907
1548.5
1645.2
1940.2
1902.5
1423.1
1516.6
1435.6
1512.1
1422.1
1503.2
1225
1315
1225
1315
1226.6
1316.6
1228.9
1321.3
1156.3
1243.9
1151.6
1302.5
1597.5
1687.5
1212.5
1302.5
1597.5
1687.5
1212.5
1315
1226.6
1321.3
1233.6
1325.9
1240.6
1333
1245.3
1337.7
1254.7
1344.7
1257
1349.4
1179.7
1260.3
1165.6
1313.4
1606.1
1696.1
1221.1
1308.8
1603.8
1693.8
1221.1
1323.6
1233.6
1325.9
1233.6
1325.9
1235.9
1323.6
1233.6
1321.3
1235.9
1325.9
1235.9
1325.9
1160.9
1434.2
1347.1
1441.6
1661.6
1756.1
1365
1459.5
1679.5
1769.5
1365
1525.6
1435.6
1521.1
1426.6
1521.1
1422.1
1512.1
1417.6
1507.6
1413.2
1494.2
1231.3
1318.9
1153.9
1241.6
1151.6
1240
1461.6
1551.6
1151.6
1240
1461.6
1553.9
1156.3
1321.3
1233.6
1325.9
1235.9
1328.3
1238.3
1330.6
1240.6
1330.6
1245.3
1337.7
1247.7
1337.7
1168
1250.9
1160.9
1311.1
1597.5
1687.5
1391.7
1481.7
1785.7
1880.1
1405.1
1503.2
1413.2
1498.7
1413.2
1503.2
1413.2
1498.7
1413.2
1507.6
1417.6
1503.2
1413.2
1507.6
1342.6
1432.6
1347.1
1522
1940.2
1907
1427.5
1508.6
1799.1
1866.7
1212.5
1321.3
1238.3
1333
1245.3
1337.7
1247.7
1337.7
1250
1340
1254.7
1344.7
1257
1347
1182
1267.3
1179.7
1327.5
1617.8
1705.5
1228.1
1306.4
1606.1
1696.1
1223.4
1330.6
1245.3
1337.7
1250
1342.3
1261.7
1344.7
1254.7
1347
1259.4
1351.7
1259.4
1351.7
1184.4
1272
1177.3
1325.2
1615.5
1698.4
1221.1
1308.8
1599.1
1687.5
1214.1
1321.3
1233.6
1325.9
1238.3
1330.6
1245.3
1342.3
1247.7
1333
1245.3
1335.3
1245.3
1335.3
1170.3
1258
1168
1320.5
1613.1
1705.5
1235.2
1327.5
1620.2
1714.8
1239.8
1344.7
1257
1347
1257
1347
1261.7
1351.7
1257
1347
1259.4
1349.4
1261.7
1347
1182
1267.3
1168
1253.3
1473.3
1560.9
1158.6
1243.9
1639.2
1733.7
1338.2
1498.7
1408.7
1503.2
1417.6
1507.6
1404.2
1316.6
1228.9
1321.3
1235.9
1330.6
1243
1337.7
1172.7
1258
1165.6
1250.9
1468.6
1556.3
1151.6
1243.9
1460
1553.9
1156.3
1328.3
1240.6
1335.3
1247.7
1344.7
1259.4
1351.7
1264.1
1354.1
1268.8
1358.8
1271.1
1363.4
1196.1
1279.1
1184.4
1327.5
1620.2
1703.1
1223.4
1311.1
1608.4
1700.8
1225.8
1333
1245.3
1337.7
1252.3
1344.7
1254.7
1344.7
1257
1347
1259.4
1349.4
1261.7
1358.8
1191.4
1276.7
1179.7
1325.2
1613.1
1698.4
1218.8
1304.1
1597.5
1687.5
1212.5
1316.6
1231.3
1325.9
1243
1335.3
1243
1337.7
1247.7
1340
1254.7
1347
1254.7
1342.3
1172.7
1255.6
1156.3
1304.1
1597.5
1687.5
1212.5
1306.4
1606.1
1696.1
1221.1
1323.6
1235.9
1325.9
1235.9
1323.6
1410.5
1500.5
1412.6
1500.2
1412.6
1500.2
1410.5
1504.7
1342.1
1429.7
1347.1
1499.6
1803.6
1893.6
1427.5
1638.5
1933.5
2043.7
1568.7
1671.2
1628.2
1718.2
1581.2
1651
1435.6
1516.6
1426.6
1507.6
1417.6
1503.2
1405.8
1325.9
1158.6
1248.6
1156.3
1483.3
1778.3
1875.7
1391.7
1481.7
1776.7
1866.7
1212.5
1315
1225
1315
1226.6
1316.6
1228.9
1323.6
1235.9
1328.3
1240.6
1333
1245.3
1335.3
1172.7
1265
1168
1255.6
1468.6
1553.9
1151.6
1243.9
1461.6
1551.6
1160.9
1330.6
1247.7
1342.3
1254.7
1347
1261.7
1354.1
1264.1
1354.1
1264.1
1356.4
1266.4
1358.8
1191.4
1272
1175
1258
1470.9
1556.3
1150
1240
1460
1550
1150
1315
1226.6
1318.9
1233.6
1325.9
1243
1328.3
1243
1330.6
1240.6
1330.6
1238.3
1333
1168
1253.3
1163.3
1311.1
1597.5
1871.2
1409.6
1495.1
1785.7
1871.2
1396.2
1494.2
1404.2
1315
1404.2
1315
1225
1495.8
1228.9
1318.9
1231.3
1321.3
1233.6
1328.3
1156.3
1240
1150
1302.5
1597.5
1687.5
1212.5
1308.8
1608.4
1698.4
1223.4
1330.6
1243
1335.3
1243
1330.6
1240.6
1330.6
1243
1335.3
1247.7
1337.7
1250
1340
1168
1258
1160.9
1306.4
1597.5
1687.5
1212.5
1302.5
1597.5
1866.7
1391.7
1240
1225
1315
1225
1315
1225
1321.3
1233.6
1328.3
1238.3
1330.6
1240.6
1330.6
1158.6
1240
1338.2
1504.1
1803.6
1902.5
1432
1641.2
1945.2
2023.5
1548.5
1459.5
1440
1525.6
1431.1
1521.1
1440
1530
1444.5
1534.5
1444.5
1534.5
1567.7
1657.7
1499.4
1602.9
1519.6
1685.5
1987.3
2077.3
1609
1705.7
2007.4
2090.7
1615.7
1643.2
1621.5
1711.5
1621.5
1711.5
1628.2
1711.5
1628.2
1704.8
1608
1711.5
1574.4
1525.6
1342.6
1432.6
1338.2
1428.2
1648.2
1733.7
1329.2
1423.7
1639.2
1729.2
1150
1240
1225
1315
1225
1315
1225
1316.6
1233.6
1321.3
1240.6
1328.3
1238.3
1325.9
1153.9
1240
1150
1428.2
1657.1
1760.6
1356.1
1446.1
1666.1
1756.1
1356.1
1446.1
1422.1
1512.1
1426.6
1512.1
1417.6
1503.2
1408.7
1498.7
1404.2
1495.8
1405.8
1495.8
1156.3
1432.6
1347.1
1508.6
1799.1
1893.6
1423.1
1638.5
1933.5
2023.5
1555.2
1582.7
1561
1657.7
1574.4
1664.4
1567.7
1657.7
1561
1534.5
1561
1651
1561
1657.7
1499.4
1596.2
1506.2
1651.9
1940.2
1902.5
1432
1517.5
1808.1
1902.5
1418.6
1450.6
1431.1
1516.6
1422.1
1512.1
1417.6
1507.6
1413.2
1503.2
1410.2
1500.2
1405.8
1495.8
1329.2
1240
1150
1481.7
1776.7
1866.7
1391.7
1481.7
1776.7
1687.5
1212.5
1240
1226.6
1316.6
1231.3
1323.6
1235.9
1325.9
1235.9
1325.9
1235.9
1325.9
1240.6
1325.9
1160.9
1250.9
1160.9
1313.4
1603.8
1691.4
1218.8
1306.4
1778.3
1868.3
1393.3
1420.8
1405.8
1495.8
1412.6
1502.6
1412.6
1500.5
1410.5
1500.5
1235.9
1325.9
1410.5
1504.9
1342.1
1429.7
1344.2
1499.6
1803.6
1898.1
1423.1
1645.2
1946.9
2036.9
1575.4
1602.9
1587.9
1677.9
1587.9
1671.2
1574.4
1657.7
1444.5
1530
1435.6
1516.6
1422.1
1507.6
1360.6
1450.6
1360.6
1446.1
1666.1
1751.6
1351.6
1446.1
1657.1
1747.1
1347.1
1432.6
1408.7
1494.2
1404.2
1315
1225
1315
1225
1315
1226.6
1318.9
1226.6
1316.6
1150
1423.7
1342.6
1437.1
1661.6
1751.6
1360.6
1463.6
1675
1769.5
1369.5
1455
1431.1
1521.1
1435.6
1521.1
1422.1
1512.1
1417.6
1503.2
1413.2
1503.2
1413.2
1503.2
1347.1
1446.1
1360.6
1522
1935.2
2036.9
1576.7
1677.6
1982.2
2072.2
1595.6
1613.7
1597.3
1684.6
1587.9
1671.2
1594.6
1684.6
1601.3
1691.3
1594.6
1698
1614.8
1698
1539.8
1589.4
1492.7
1638.5
1933.5
2023.5
1432
1638.5
1933.5
1907
1432
1459.5
1440
1530
1440
1534.5
1440
1530
1431.1
1512.1
1413.2
1498.7
1404.2
1494.2
1333.7
1428.2
1347.1
1504.1
1806.9
1898.6
1428.5
1524.4
1820.9
1914.2
1437.1
1456
1433.8
1516.6
1426.6
1512.1
1417.6
1507.6
1413.2
1503.2
1404.2
1315
1225
1498.7
1333.7
1428.2
1338.2
1499.6
1785.7
1875.7
1400.7
1490.7
1785.7
1875.7
1405.1
1441.6
1426.6
1521.1
1435.6
1651
1561
1657.7
1567.7
1657.7
1574.4
1664.4
1574.4
1671.2
1506.2
1602.9
1519.6
1692.3
1987.3
2084
1617.1
1719.2
2015.8
2115.8
1632
1658.1
1641.7
1722.3
1622.8
1704.8
1608
1677.9
1587.9
1664.4
1574.4
1664.4
1561
1657.7
1519.6
1617.7
1539.9
1633.9
1861.4
1946.3
1550.8
1656.9
1881.5
1969.8
1561.6
1650.2
1625.8
1698.2
1575.9
1532.8
1435.6
1516.6
1422.1
1512.1
1413.2
1494.2
1408.7
1503.2
1347.1
1437.1
1351.6
1446.1
1679.5
1769.5
1351.6
1441.6
1657.1
1747.1
1347.1
1432.6
1413.2
1503.2
1417.6
1507.6
1422.1
1512.1
1426.6
1521.1
1435.6
1530
1444.5
1534.5
1369.5
1576
1499.4
1672.1
1973.8
2050.4
1595.5
1685.5
1973.8
2070.5
1602.3
1623
1601.3
1677.9
1574.4
1671.2
1587.9
1664.4
1587.9
1677.9
1594.6
1684.6
1594.6
1684.6
1526.3
1616.3
1506.2
1651.9
1946.9
2030.2
1549.9
1523.4
1820.4
1910.4
1427.5
1446.1
1431.1
1516.6
1426.6
1521.1
1426.6
1512.1
1417.6
1512.1
1417.6
1507.6
1413.2
1507.6
1351.6
1455
1486
1647.9
1953.6
2045.3
1570.1
1665.5
1951.9
2036.9
1555.2
1576
1444.5
1530
1426.6
1507.6
1413.2
1498.7
1228.9
1318.9
1231.3
1321.3
1231.3
1321.3
1150
1240
1150
1302.5
1597.5
1866.7
1391.7
1481.7
1776.7
1687.5
1391.7
1240
1225
1316.6
1228.9
1318.9
1231.3
1323.6
1231.3
1323.6
1235.9
1325.9
1235.9
1325.9
1160.9
1243.9
1150
1302.5
1597.5
1687.5
1212.5
1481.7
1776.7
1687.5
1212.5
1240
1225
1315
1228.9
1321.3
1233.6
1323.6
1235.9
1328.3
1240.6
1330.6
1240.6
1325.9
1153.9
1240
1150
1240
1643.7
1738.2
1342.6
1437.1
1657.1
1751.6
1351.6
1437.1
1417.6
1503.2
1426.6
1498.7
1408.7
1498.7
1408.7
1315
1225
1315
1225
1494.2
1338.2
1428.2
1342.6
1437.1
1657.1
1760.6
1351.6
1446.1
1666.1
1756.1
1356.1
1441.6
1422.1
1507.6
1417.6
1503.2
1413.2
1498.7
1408.7
1494.2
1404.2
1498.7
1408.7
1503.2
1338.2
1432.6
1351.6
1513.1
1799.1
1898.1
1423.1
1522
1812.5
1898.1
1427.5
1450.6
1431.1
1516.6
1426.6
1516.6
1426.6
1516.6
1426.6
1516.6
1426.6
1512.1
1422.1
1516.6
1360.6
1450.6
1360.6
1517.5
1817
2026.8
1559.3
1650.7
1958.6
2046.9
1568.8
1596.3
1570.4
1659.1
1567.7
1651
1561
1534.5
1440
1530
1440
1530
1440
1534.5
1492.7
1589.4
1517
1680.3
1972
2072.1
1595.7
1687.1
1995.5
2078.8
1598.5
1620.5
1593.3
1657.7
1444.5
1534.5
1440
1525.6
1426.6
1512.1
1426.6
1512.1
1422.1
1512.1
1360.6
1459.5
1486
1658.7
1940.2
2030.2
1548.5
1522
1933.5
1902.5
1432
1455
1435.6
1521.1
1435.6
1521.1
1431.1
1521.1
1426.6
1516.6
1426.6
1521.1
1426.6
1521.1
1356.1
1455
1365
1517.5
1812.5
1907
1548.5
1638.5
1933.5
1902.5
1423.1
1446.1
1356.1
1521.1
1426.6
1516.6
1422.1
1512.1
1422.1
1516.6
1426.6
1512.1
1422.1
1516.6
1360.6
1576
1492.7
1582.7
1809.4
1916.2
1517
1602.9
1802.7
1886
1369.5
1450.6
1356.1
1521.1
1426.6
1516.6
1426.6
1516.6
1426.6
1512.1
1422.1
1512.1
1417.6
1516.6
1360.6
1576
1492.7
1604.2
1851.3
1937.9
1548
1640.8
1854.7
1934.6
1523.8
1620.5
1527.8
1680.6
1590.6
1671.2
1574.4
1657.7
1567.7
1657.7
1561
1651
1561
1664.4
1506.2
1619
1550.7
1724.8
2039.1
2114
1641.6
1733
2025.6
2122.4
1640.2
1666.4
1566.9
1729.2
1627
1707.6
1617.6
1706.2
1613.5
1702.1
1602.7
1691.3
1594.6
1691.3
1551.9
1660.8
1591.1
1759.8
2061
2171.1
1675.2
1765.2
2071
2140.9
1650.9
1677
1587
1743.9
1651.2
1733.1
1649.8
1721
1613.5
1696.8
1605.4
1675.3
1583.9
1673.9
1514.2
1605.6
1514.2
1669.5
1972.1
2062.1
1584.8
1692.4
1962
2058.7
1599.6
1609.6
1506.2
1664.4
1581.2
1664.4
1574.4
1664.4
1574.4
1664.4
1574.4
1657.7
1567.7
1671.2
1519.6
1611
1541.2
1695.1
2010.6
2095.6
1624
1699.2
1997.2
2078.8
1599.7
1623.1
1534.4
1691.3
1594.6
1677.9
1587.9
1677.9
1587.9
1684.6
1594.6
1677.9
1574.4
1671.2
1526.3
1636.5
1574.8
1748.9
2059.3
2137.6
1669.8
1757
2057.6
2140.9
1653.6
1673
1558.8
1718.3
1622.8
1704.8
1614.8
1704.8
1614.8
1704.8
1621.5
1718.2
1628.2
1711.5
1546.5
1636.5
1546.5
1636.5
1863.2
1953.2
1559.9
1651.3
1880
1959.9
1553.2
1629.8
1533
1704.8
1614.8
1711.5
1628.2
1711.5
1621.5
1718.2
1628.2
1718.2
1634.9
1718.2
1566.6
1671.4
1597.6
1709.2
1943.7
2045.4
1647.6
1743
1970.5
2063.8
1641
1734.9
1647.6
1804.5
1705
1785.6
1692.9
1788.2
1690.1
1788.2
1691.5
1788.2
1690.1
1781.5
1624.6
1714.6
1647.6
1790.6
2094.6
2194.6
1715.5
1802.8
2103
2191.3
1699.3
1720
1611.1
1766.7
1667.3
1765.3
1663.2
1753.2
1663.2
1753.2
1669.9
1759.9
1671.2
1772.1
1607.1
1706.5
1628.7
1798.7
2104.6
2198
1719.6
1786.7
2097.8
2161
1676.6
1694.6
1596.5
1745.4
1647.3
1729.1
1587.9
1671.2
1574.4
1534.5
1444.5
1530
1440
1530
1369.5
1582.7
1492.7
1646.6
1943.6
2043.6
1567.4
1680.3
1967
2038.6
1555.2
1459.5
1369.5
1521.1
1431.1
1521.1
1431.1
1516.6
1426.6
1516.6
1422.1
1512.1
1417.6
1512.1
1356.1
1450.6
1369.5
1522
1820.4
2041.9
1556.7
1646.7
1955.2
2036.8
1568.8
1586.8
1487.4
1534.5
1444.5
1534.5
1435.6
1521.1
1426.6
1516.6
1431.1
1521.1
1426.6
1521.1
1365
1582.7
1499.4
1661.4
1960.3
2075.5
1609.2
1688.4
1983.8
2070.5
1588.9
1600.3
1500.8
1664.4
1561
1534.5
1567.7
1664.4
1581.2
1677.9
1587.9
1684.6
1594.6
1691.3
1533
1629.8
1553.2
1660.7
1911.8
2011.9
1607.2
1702.5
1940.3
2018.6
1604.4
1694.4
1611.1
1746.4
1648.4
1738.4
1680.7
1770.7
1680.7
1777.4
1679.3
1762.6
1672.6
1770.7
1613.8
1716
1628.7
1738.9
1972.2
2057.1
1651.7
1741.7
1968.8
2048.7
1648.9
1730.9
1631.4
1793.7
1702.3
1791
1710.4
1792.3
1702.3
1781.5
1691.5
1772.1
1690.1
1780.1
1616.5
1658
1576.1
1712.4
2007.4
2090.7
1602.3
1692.3
1987.3
2070.5
1595.5
1616.3
1533
1698
1601.3
1691.3
1594.6
1684.6
1601.3
1691.3
1601.3
1704.8
1614.8
1704.8
1546.5
1643.2
1553.2
1712.4
2022.5
2112.5
1662.8
1774.5
2091.2
2193
1712.8
1713.3
1612.5
1787
1695.6
1787
1688.9
1715.6
1601.3
1664.4
1567.7
1651
1561
1657.7
1492.7
1589.4
1492.7
1645.2
1933.5
2030.2
1548.5
1645.2
1817
2023.5
1432
1459.5
1360.6
1525.6
1431.1
1521.1
1431.1
1516.6
1426.6
1512.1
1422.1
1512.1
1422.1
1516.6
1351.6
1446.1
1356.1
1517.5
1808.1
1898.1
1432
1638.5
1940.2
2030.2
1555.2
1582.7
1486
1534.5
1561
1651
1567.7
1657.7
1561
1651
1561
1651
1444.5
1651
1492.7
1589.4
1515.6
1680.3
1987.2
2080.5
1601.1
1693.8
1982.2
2075.5
1599.7
1616.4
1517
1677.9
1574.4
1534.5
1440
1525.6
1422.1
1503.2
1404.2
1494.2
1404.2
1498.7
1338.2
1432.6
1342.6
1437.1
1661.6
1760.6
1367.8
1465
1804.3
1896
1492.8
1592.3
1372.2
1530
1561
1657.7
1561
1534.5
1435.6
1516.6
1426.6
1521.1
1431.1
1651
1492.7
1602.9
1533.1
1642
1871.4
1964.8
1569.7
1651.6
1878.1
1959.7
1562.9
1651.6
1557.5
1714.4
1637.7
1710.2
1625.6
1698
1601.3
1691.3
1608
1691.3
1614.8
1711.5
1546.5
1660.7
1600.4
1766.5
2077.7
2171.1
1694.1
1785.5
2079.4
2176.1
1692.7
1709.4
1615.3
1770.9
1678.2
1758.7
1664.6
1739.8
1641.7
1715.6
1630.9
1720.9
1629.6
1727.6
1580.2
1689.1
1609.9
1782.6
2094.5
2196.2
1715.6
1808.4
2111.2
2191.2
1707.5
1741.8
1643.6
1797.8
1690.2
1778.9
1687.5
1768.1
1678.1
1765.3
1675.3
1765.3
1682.1
1765.3
1624.6
1724
1634
1800.1
2113.1
2213.1
1719.5
1817.6
2114.7
2218.1
1729
1756.5
1659.7
1796.3
1713
1801.7
1698.2
1780.1
1690.1
1780.1
1688.8
1772.1
1682.1
1781.5
1621.9
1713.2
1632.7
1802.7
2111.4
2206.4
1737.1
1819
2119.7
2213.1
1727.7
1747.1
1620.8
1768.3
1666.1
1753.4
1653.9
1747.9
1641.7
1720.9
1621.5
1704.8
1614.8
1720.9
1573.5
1672.9
1595.1
1740.9
2052.6
2144.2
1668.4
1761.1
2069.4
2146
1648.1
1674.3
1573.5
1745.2
1661.9
1758.6
1659.2
1739.7
1659.2
1747.8
1656.4
1754.5
1664.5
1764
1616.5
1717.3
1636.8
1738.9
1965.5
2063.8
1658.4
1749.7
1967.1
2057.1
1650.3
1741.7
1642.2
1796.4
1697
1777.5
1679.4
1768.1
1670
1766.7
1676.7
1765.3
1667.3
1773.4
1611.1
1720
1638.1
1737.6
1975.5
2075.6
1650.3
1747
1973.9
2040.5
1633.9
1709.1
1611.1
1761.2
1663.2
1745.1
1641.6
1718.2
1621.5
1711.5
1614.8
1698
1608
1623
1526.3
1623
1526.3
1678.8
1967.1
2063.8
1595.5
1678.8
1967.1
2057.1
1582.1
1609.6
1512.9
1602.9
1512.9
1671.2
1574.4
1657.7
1561
1534.5
1440
1530
1561
1576
1486
1582.7
1492.7
1645.2
1973.8
2043.7
1568.7
1672.1
1967.1
2057.1
1568.7
1609.6
1512.9
1602.9
1512.9
1677.9
1587.9
1671.2
1574.4
1671.2
1581.2
1664.4
1574.4
1589.4
1499.4
1596.2
1519.6
1685.5
1973.8
2080.6
1588.8
1678.8
1960.4
2050.4
1588.8
1609.6
1512.9
1596.2
1506.2
1671.2
1587.9
1671.2
1581.2
1671.2
1581.2
1671.2
1581.2
1589.4
1499.4
1596.2
1506.2
1665.4
1967.1
2057.1
1596.9
1678.8
1967.1
2057.1
1575.4
1602.9
1512.9
1596.2
1506.2
1671.2
1587.9
1677.9
1581.2
1677.9
1581.2
1671.2
1581.2
1602.9
1512.9
1602.9
1519.6
1685.5
1967.1
2077.3
1629.1
1705.7
2029.2
2112.5
1626.5
1643.2
1539.8
1636.5
1553.2
1724.9
1628.2
1724.9
1634.9
1718.2
1628.2
1724.9
1641.6
1656.6
1573.4
1687.6
1600.3
1682.3
1905.1
1993.4
1588.4
1674.4
1903.4
1979.9
1549.4
1608.4
1515.7
1589.5
1492.7
1698
1614.8
1704.8
1601.3
1651
1435.6
1525.6
1435.6
1576
1492.7
1596.2
1530.4
1635.2
1866.5
1963.2
1547.9
1631.2
1858.1
1946.4
1545.2
1641.9
1543.9
1632.5
1526.3
1684.6
1608
1704.8
1614.8
1704.8
1614.8
1704.8
1614.8
1636.5
1554.6
1652.6
1562.6
1731.3
2059.4
2164.5
1696.6
1794.7
2104.6
2191.3
1720.9
1730.9
1631.4
1725.4
1615.1
1778.8
1680.7
1777.4
1680.7
1772.1
1682.1
1769.3
1682.1
1697.1
1607.1
1705.1
1623.2
1786.5
2091.2
2193
1712.8
1800.2
2096.2
2169.4
1680.6
1706.7
1605.9
1687.8
1588.4
1749.3
1657.9
1738.5
1645.7
1727.6
1644.4
1726.3
1636.3
1662.1
1589.6
1683.7
1601.8
1754.3
2059.3
2156
1680.6
1770.6
2074.4
2171.1
1688.6
1706.7
1623.4
1704
1611.2
1773.5
1682.2
1772.2
1672.7
1769.4
1671.3
1760
1670
1693.1
1619.2
1718.7
1638.1
1812.2
2124.7
2226.4
1742.5
1968
2272.5
2362.5
1879.3
1905.5
1812.7
1901.4
1810
1835.5
1748.2
1828.7
1737.4
1819.3
1719.8
1793.7
1694.2
1712
1626.1
1710.7
1636.9
1792.1
2092.8
2198
1739.8
1959.8
2259.2
2352.5
1871.1
1911.1
1821.1
1900
1675.9
1838.2
1746.8
1969.5
1745.5
1819.3
1719.8
1801.8
1710.4
1725.4
1639.5
1708
1634.1
1716.1
1950.3
2035.3
1634.2
1710.8
1933.5
2015.1
1592.5
1674.5
1587.1
1667.6
1566.8
1758.8
1680.8
1768.1
1670
1761.3
1670
1760
1660.5
1686.3
1607.2
1709.3
1612.6
1721.5
1941.9
2047
1639.6
1736.3
1948.6
2037
1630.1
1720.1
1620.7
1709.3
1612.5
1768.1
1663.2
1761.2
1679.3
1769.3
1679.3
1769.3
1687.4
1710.5
1628.6
1719.9
1636.7
1806.7
2250.8
2354.2
1874.1
1961.4
2249.2
2204.8
1707.2
1706.5
1597.6
1679.5
1589.5
1754.5
1656.4
1746.4
1656.4
1746.4
1664.5
1754.5
1664.5
1687.6
1597.6
1689
1599
1751.5
2072.8
2164.5
1688.5
1779.8
2099.7
2183
1710
1734.7
1663.6
1733.5
1613.9
1772.2
1682.2
1770.8
1671.3
1753.3
1661.9
1750.5
1659.2
1685
1604.4
1690.4
1603.2
1757
2056
2147.6
1673.7
1747.6
2042.6
2125.9
1645.4
1670.2
1572.1
1667.5
1577.5
1741.1
1651.1
1733
1643
1733
1634.9
1733
1643
1658
1574.7
1656.6
1581.4
1735.3
2032.6
2132.6
1656.1
1743.4
2037.6
2119.2
1652
1679.5
1589.5
1679.5
1589.5
1755.9
1664.5
1754.5
1656.4
1754.5
1672.6
1762.6
1672.6
1689
1607.1
1714.6
1635.4
1816.2
2111.3
2196.3
1714.2
1808.3
2101.2
2192.9
1711.5
1733.6
1635.5
1718.8
1628.8
1791.1
1688.9
1764.1
1672.7
1756
1651.2
1739.8
1641.7
1648.7
1566.7
1663.5
1581.5
1676.9
1895.1
1980.1
1581.4
1680.9
1911.9
2008.6
1607.1
1710.5
1620.5
1710.5
1620.5
1792.2
1703.6
1793.6
1711.7
1801.7
1711.7
1808.4
1718.4
1733.4
1644.7
1744.2
1654.2
1901.6
1988.9
2080.6
1669.2
1770
1995.6
2221.7
1681.4
1765.9
1674.6
1755.1
1665.1
1815.2
1725.2
1807.1
1709
1792.3
1694.2
1776.1
1678.1
1702.5
1613.9
1708
1628.8
1777.3
2076.1
2192.9
1714.3
1811
2114.6
2204.6
1722.3
1747.1
1655.8
1743
1644.9
1801.9
1698.3
1789.7
1702.3
1792.3
1701
1799
1717.1
1740.2
1800.5
1894.5
1814.3
1980.7
2279.2
2357.5
1900.4
1993.2
2286
2387.7
1903.2
1921.1
1811.6
1901.6
1644.8
1808.5
1717.1
1795
1687.5
1754.6
1648.5
1729
1639
1663.5
1582.9
1690.4
1603.2
1765.1
2074.4
2159.4
1687.3
1780
2072.7
2171.1
1681.9
1701.3
1610
1689.2
1591.1
1746.6
1640.5
1722.4
1622.9
1711.6
1621.6
1707.5
1616.1
1640.6
1561.4
1663.6
1583
1747.7
2047.5
2149.2
1667.1
1754.4
2054.2
2142.6
1663
1695.9
1603.2
1705.2
1607.2
1769.4
1670
1760
1670
1760
1663.3
1753.3
1656.5
1672.9
1589.6
1689.1
1605.8
1759.7
2051
2144.3
1675.1
1766.5
2066
2164.5
1684.5
1702.5
1599.1
1694.4
1603.1
1760
1670
1760
1668.6
1758.6
1661.9
1758.6
1660.5
1676.9
1580.2
1671.5
1581.5
1664.8
1873.2
1963.2
1573.5
1648.7
1858.1
1939.8
1539.8
1629.8
1553.2
1636.5
1546.5
1711.5
1628.2
1731.6
1641.6
1731.6
1648.4
1745.1
1655.1
1663.4
1573.4
1656.6
1573.4
1663.4
1883.4
1981.7
1600.3
1695.8
1920.2
2006.9
1600.4
1698.5
1591
1687.7
1591
1756
1664.6
1738.5
1637.6
1711.5
1621.5
1704.8
1614.8
1636.5
1554.6
1663.5
1574.8
1738.1
2035.9
2137.6
1665.7
1750.3
2047.6
2146
1668.4
1687.8
1596.4
1683.7
1582.9
1753.3
1663.3
1742.5
1645.7
1734.4
1636.3
1734.4
1652.5
1676.9
1595
1682.4
1603.2
1786.6
2076.1
2166.1
1687.3
1789.4
2087.8
2171.2
1704.6
1732.1
1632.7
1722.7
1638
1803
1713
1804.4
1713
1811.1
1713
1809.7
1698.2
1697.1
1615.1
1706.5
1626
1773.1
2084.5
2177.8
1714.2
1796.1
2094.5
2189.6
1702.1
1728.2
1622.1
1705.3
1619.3
1776.2
1683.5
1764.1
1663.3
1753.3
1660.5
1750.5
1652.5
1678.3
1582.9
1674.3
1601.8
1762.4
2064.4
2156
1684.6
1771.8
2061
2144.3
1677.7
1689.1
1599.1
1693.1
1609.8
1768.1
1675.3
1764
1672.6
1742.5
1629.6
1711.5
1622.8
1645.9
1566.7
1659.5
1572.2
1728.8
2029.1
2144.2
1672.5
1763.8
2062.6
2152.6
1680.5
1708
1616.6
1697.2
1605.8
1762.7
1679.4
1761.3
1671.3
1760
1668.6
1760
1670
1678.3
1589.6
1681
1591
1687.7
1918.5
2001.9
1600.3
1701.1
1906.7
2013.5
1603.2
1693.2
1593.7
1677
1584.3
1754.6
1657.9
1747.9
1656.5
1745.2
1655.2
1751.9
1652.5
1683.6
1596.3
1694.4
1615.2
1714.7
1940.3
2040.3
1644.9
1726.9
1953.7
2045.3
1632.9
1721.5
1632.8
1726.8
1636.8
1799
1699.6
1789.6
1699.6
1780.1
1688.8
1780.1
1690.1
1713.2
1634
1734.8
1646.2
1801.4
2109.7
2191.3
1711.4
1809.5
2108
2181.2
1695.3
1721.4
1622
1710.6
1627.3
1796.3
1715.8
1812.5
1722.5
1812.5
1719.7
1819.2
1730.6
1753.6
1797.7
1890.5
1801.8
1966.8
2260.8
2364.2
1741.1
1972.3
2270.9
2360.9
1872.5
1768.6
1670.5
1761.8
1663.7
1834.1
1741.4
1826
1733.3
1823.3
1726.6
1816.6
1725.2
1748.3
1659.7
1751
1670.5
1824.3
2272.6
2354.2
1872.5
1965.2
2274.2
2216.4
1728.9
1890.5
1670.5
1759.1
1666.4
1962.7
1738.6
1828.6
1730.6
1813.8
1709
1770.8
1687.5
1697.2
1603.1
1689
1597.6
1752.8
2069.5
2151.1
1683.1
1785.3
2098
2179.6
1689.8
1716
1624.6
1713.2
1636.7
1801.7
1719.7
1817.8
1727.8
1809.7
1706.3
1781.5
1691.5
1699.8
1611.1
1703.9
1609.9
1771.8
2071.1
2166.1
1687.3
1780
2081.1
2177.8
1690
1709.4
1616.7
1698.6
1605.9
1769.5
1671.4
1760.1
1662
1750.6
1659.3
1730.4
1645.7
1670.2
1597.7
1698.5
1619.3
1704
1940.2
2033.6
1622.2
1704.1
1941.9
2035.2
1626.1
1716.1
1623.4
1718.8
1624.7
1789.7
1690.2
1778.9
1679.4
1776.1
1684.8
1773.4
1676.7
1702.5
1616.6
1709.3
1630.1
1731
1962
2045.3
1651.8
1737.8
1968.7
2058.7
1643.7
1731
1639.6
1725.5
1632.8
1791.1
1690.2
1780.2
1688.9
1776.1
1686.1
1768.1
1678.1
1710.6
1622
1721.4
1632.8
1804.2
2104.6
2198
1715.5
1805.5
2079.4
2154.3
1664.4
1710.7
1623.3
1705.2
1613.9
1778.9
1688.9
1777.5
1694.2
1784.2
1686.1
1784.2
1694.2
1717.3
1636.8
1734.8
1635.4
1789.3
2101.3
2198.1
1728.9
1808.1
2109.7
2342.5
1728.9
1756.4
1799.1
1887.7
1797.7
1962.7
1738.6
1828.6
1730.6
1820.6
1729.2
1809.7
1735.9
1752.3
1799.1
1753.6
1666.4
1951.6
2254.2
2194.7
1728.9
1813.5
2116.4
2206.4
1711.4
1730.9
1624.7
1705.2
1607.2
1756
1652.5
1727.7
1629.7
1708.9
1602.7
1684.6
1594.6
1616.3
1534.4
1633.9
1561.4
1723.3
2030.8
2130.9
1648.2
1731.5
2039.1
2142.6
1663
1689.2
1601.8
1687.7
1589.6
1745.2
1647.1
1735.7
1652.5
1724.9
1634.9
1731.6
1634.9
1666.1
1586.9
1693.1
1611.1
1766.4
2077.8
2167.8
1683.2
1771.8
2072.7
2162.7
1681.8
1698.5
1607.2
1695.8
1604.4
1769.4
1679.4
1769.4
1679.4
1769.4
1686.1
1776.1
1686.1
1701.1
1626
1717.3
1623.2
1737.5
1973.9
2070.6
1803.2
1901.6
2145.1
2230.1
1824.1
1908.4
1817
1897.3
1814.3
1969.5
1744.1
1831.4
1741.4
1821.9
1733.3
1821.9
1722.5
1755
1669.1
1904.3
1815.7
1920.9
2156.9
2258.6
1829.3
1930.4
2153.4
2250.1
1839.1
1926.3
1842
1920.9
1829.5
1993.2
1901.8
1998.8
1899.1
1987.7
1896.3
1975.2
1745.5
1753.7
1661.1
1767.3
1674.7
1969.3
2274.2
2367.5
1901.6
1990.2
2296
2375.9
1890.4
1915.2
1814.1
1768.6
1810
1840.9
1749.6
1831.5
1733.4
1822
1745.5
1834.1
1736
1751
1655.7
1748.4
1662.5
1815
2111.3
2186.2
1711.5
1821.8
2126.3
2211.3
1735.8
1763.3
1643.6
1721.4
1630
1789.7
1690.2
1772.2
1666
1747.9
1649.8
1723.7
1625.6
1651.4
1564.1
1670.3
1591.1
1747.7
2052.5
2157.6
1684.7
1759.9
2059.2
2157.6
1675.2
1693.3
1587.1
1667.6
1574.9
1731.8
1641.8
1730.5
1639.1
1726.4
1628.3
1718.3
1624.2
1648.7
1569.5
1670.3
1591.1
1747.7
2044.1
2142.5
1668.5
1761.2
2059.2
2150.9
1652.3
1681.2
1588.5
1667.6
1576.3
1738.6
1640.5
1730.5
1637.7
1729.1
1639.1
1727.7
1624.2
1658.1
1578.9
1664.9
1585.7
1732.9
2050.9
2134.1
1657.8
1743.7
2059.2
2145.9
1671.2
1697.4
1597.9
1686.5
1593.8
1764.2
1663.4
1723.7
1652.5
1739.8
1641.7
1730.4
1629.6
1663.5
1587
1687.8
1608.6
1702.7
1921.7
2031.9
1626.1
1717.5
1943.6
2026.9
1616.7
1712.1
1620.7
1709.3
1623.3
1788.3
1691.6
1773.5
1674.1
1764.1
1672.7
1761.3
1679.4
1702.5
1607.2
1716.1
1636.9
1745.8
1980.5
2070.5
1665.2
1755.2
1983.8
2075.5
1665.2
1747.1
1654.4
1733.6
1634.1
1785.7
1693
1789.7
1705
1793.7
1710.4
1792.3
1701
1707.9
1626
1724
1646.2
1801.4
2114.7
2209.7
1729
1824.3
2128.1
2216.4
1734.3
1760.5
1662.4
1742.9
1651.6
1815.2
1718.5
1807.1
1717.1
1805.8
1714.4
1804.4
1704.9
1736.1
1666.4
1759.1
1671.8
1829.8
2121.3
2214.7
1725.1
1831.2
2126.3
2214.7
1743.9
1902.7
1810
1897.3
1804.5
1968.2
1876.8
1826
1733.3
1815.2
1717.1
1808.5
1710.4
1736.2
1659.7
1753.8
1671.9
1829.9
2134.7
2228.1
1735.9
1825.9
2138.1
2224.7
1880.7
1774.1
1828.2
1916.8
1817
1979.3
1878.2
1966.8
1875.5
1830
1740
1962.7
1738.6
1887.7
1800.5
1756.4
1801.8
1973.8
2287.7
2382.7
1890.7
1986.3
2287.7
2361
1870
1890.5
1799.1
1755
1665
1828.6
1737.3
1827.3
1735.9
1820.6
1703.7
1778.9
1679.4
1702.5
1616.6
1717.4
1631.5
1796.2
2101.2
2186.1
1711.6
1803
2102.8
2187.8
1691.5
1709.5
1623.5
1717.5
1626.1
1788.4
1684.9
1776.2
1682.2
1773.5
1682.2
1764.1
1679.4
1695.8
1623.3
1725.5
1638.2
1726.9
1965.4
2053.7
1634.3
1725.7
1958.6
2040.2
1639.7
1727
1626.1
1789.8
1695.7
1769.5
1678.2
1768.2
1675.4
1756
1664.6
1746.5
1647.1
1671.5
1600.4
1702.6
1615.3
1712.2
1933.5
2025.1
1620.9
1719
1967.1
2048.7
1649
1708.2
1615.4
1777.7
1686.3
1770.9
1687.6
1768.2
1675.4
1764.1
1674.1
1769.4
1670
1701.1
1628.7
1729.5
1646.3
1800.2
2121.3
2196.2
1726.4
1816.4
2112.9
2209.6
1718.4
1737.8
1645
1800.6
1707.9
1793.8
1711.9
1799.1
1721.2
1816.6
1727.9
1772.1
1690.1
1697.1
1616.5
1725.4
1647.6
1810.9
2116.3
2211.3
1722.3
1808.4
2106.2
2196.2
1690.1
1714.9
1620.8
1776.3
1685
1764.2
1680.9
1774.9
1674.1
1764.1
1666
1753.3
1663.3
1676.9
1607.2
1693.2
1623.4
1775.9
2081.1
2174.4
1695.5
1785.5
2094.5
2176.1
1684.7
1709.4
1608.6
1770.9
1679.5
1768.2
1663.4
1743.9
1645.8
1733.1
1641.7
1723.7
1632.3
1645.9
1574.8
1668.9
1583
1736.9
2054.2
2152.6
1668.5
1758.5
2060.9
2147.6
1659
1686.5
1593.8
1762.8
1662
1752
1660.6
1750.6
1651.2
1733.1
1641.7
1735.7
1645.7
1660.7
1582.9
1683.7
1604.5
1766.5
2061
2152.6
1675.2
1757.1
2064.3
2149.3
1668.4
1701.2
1601.8
1765.4
1675.4
1758.7
1667.4
1749.3
1648.5
1746.5
1645.7
1718.2
1644.4
1682.3
1603.1
1690.4
1591.1
1690.5
1921.8
2013.5
1608.6
1698.6
1930.2
2016.9
1604.5
1699.9
1600.4
1764.1
1674.1
1764.1
1679.4
1762.7
1666
1746.5
1661.9
1751.9
1661.9
1678.3
1597.7
1697.2
1618
1712.1
1940.2
2018.5
1618.1
1709.4
1925.1
2018.5
1611.2
1698.5
1613.9
1776.1
1686.1
1774.8
1683.4
1765.3
1682.1
1773.4
1683.4
1772.1
1682.1
1705.1
1609.8
1709.2
1613.9
1750.3
2064.4
2157.7
1684.6
1773.2
2071.1
2157.7
1677.7
1712
1615.2
1772.2
1688.9
1778.9
1695.6
1792.3
1702.3
1784.2
1686.1
1782.9
1706.3
1713.2
1636.7
1726.7
1636.7
1789.2
2096.3
2196.4
1720.8
1810.8
2254.2
2211.4
1715.4
1734.8
1643.5
1808.5
1717.1
1812.5
1715.8
1791
1699.6
1781.5
1676.7
1757.3
1660.5
1685
1604.4
1698.5
1611.2
1766.5
2082.8
2184.5
1696.7
1781.4
2091.1
2172.7
1690
1712.1
1611.2
1774.9
1675.4
1757.4
1666
1756
1656.5
1738.5
1647.1
1735.7
1645.7
1660.7
1581.5
1674.3
1596.4
1758.4
2061
2154.3
1668.5
1758.5
2050.9
2142.5
1660.4
1679.8
1580.4
1742.6
1651.3
1739.9
1647.2
1734.5
1625.6
1715.6
1630.9
1711.5
1621.5
1651.3
1581.5
1679.7
1600.5
1765.2
2074.4
2172.7
1707.5
1789.5
2107.9
2197.9
1710.2
1726.9
1628.8
1791.1
1691.6
1780.2
1690.2
1769.4
1679.4
1760
1668.6
1757.3
1665.9
1690.3
1620.6
1716.1
1646.3
1741.8
1973.7
2062.1
1672
1756.7
1975.4
2073.8
1671.9
1745.9
1651.8
1815.4
1732
1808.6
1718.6
1805.9
1707.8
1788.3
1698.3
1777.5
1688.9
1702.5
1623.3
1722.8
1659.7
1752.5
1988.9
2085.6
1686.8
1778.2
1998.9
2060.5
1674.7
1764.7
1671.9
1828.8
1741.5
1815.3
1726.7
1813.9
1714.5
1803.1
1705
1784.2
1694.2
1709.2
1638.1
1738.9
1661.1
1825.8
2274.2
2233.1
1741.2
1835.3
2133
2224.7
1737.2
1767.4
1674.7
1822.1
1733.4
1824.7
1723.9
1813.9
1715.9
1804.5
1713.1
1809.8
1721.2
1734.8
1646.2
1751
1670.5
1829.8
2126.4
2218.1
1743.9
1832.5
2134.8
2355.8
1880.9
1897.3
1670.5
1826
1734.7
1823.3
1731.9
1828.6
1730.6
1820.6
1730.6
1827.3
1737.3
1753.6
1797.7
1889.1
1811.6
1966.8
2267.6
2360.9
1869.8
1957
2254.2
2344.2
1863
1890.5
1799.1
1962.7
1872.7
1828.6
1738.6
1961.4
1874.1
1828.6
1738.6
1828.6
1871.4
1753.6
1799.1
1890.5
1811.6
1964.1
2267.6
2357.6
1876.8
1966.8
2259.2
2347.5
1864.3
1890.5
1801.8
1972.5
1882.5
1964.1
1874.1
1962.7
1874.1
1969.8
1879.8
1819.2
1719.7
1729.4
1616.5
1709.2
1622
1786.6
2082.8
2176.1
1696.7
1797.5
2101.2
2184.5
1700.8
1725.6
1624.8
1780.3
1680.9
1754.7
1662
1752
1659.3
1747.9
1649.8
1730.4
1640.4
1647.3
1568.1
1668.9
1588.4
1695.9
1915.1
2023.5
1611.3
1702.7
1940.2
2026.9
1611.3
1686.5
1585.7
1738.6
1658
1735.8
1640.4
1730.4
1647.1
1729
1647.1
1743.8
1660.5
1675.5
1608.4
1710.6
1630
1724.1
1955.4
2045.4
1644.9
1740.3
1967.1
2055.5
1648.9
1730.9
1644.8
1807.1
1715.8
1804.4
1706.3
1804.4
1713
1794.9
1704.9
1793.6
1711.7
1726.7
1623.2
1724
1620.7
1781.3
2084.5
2184.5
1711.5
1806.9
2099.6
2189.6
1707.4
1725.5
1640.9
1797.8
1706.4
1795
1703.7
1793.7
1710.4
1800.4
1717.1
1807.1
1709
1724
1643.5
1744.3
1650.3
1796.2
2097.8
2209.7
1734.4
1828.4
2126.4
2187.8
1695.5
1718.9
1610
1764.2
1664.7
1746.6
1640.5
1729.1
1626.9
1715.6
1624.2
1722.3
1630.9
1647.3
1566.7
1660.8
1583
1743.6
2047.5
2147.6
1668.5
1749
2047.5
2140.9
1657.7
1690.5
1589.7
1753.4
1653.9
1743.9
1651.2
1731.7
1640.4
1729
1637.6
1719.6
1621.5
1644.6
1574.8
1666.2
1587
1743.6
2052.6
2134.2
1664.4
1755.8
2054.2
2144.2
1645.5
1678.4
1578.9
1735.8
1644.5
1731.7
1633.7
1722.3
1630.9
1712.8
1614.8
1704.8
1608
1629.8
1547.8
1659.5
1572.2
1735.5
2037.5
2129.1
1657.7
1749
2055.9
2147.6
1657.7
1682.5
1583
1753.4
1647.2
1734.5
1657.9
1723.7
1660.5
1719.6
1614.8
1711.5
1621.5
1644.6
1573.5
1675.6
1597.8
1700
1923.5
2026.9
1622.2
1728.2
1947
2037
1628.8
1710.7
1618
1774.9
1683.5
1770.8
1680.8
1764.1
1672.7
1760
1660.5
1758.6
1659.2
1674.2
1603.1
1710.6
1639.5
1733.6
1977.2
2070.5
1669.3
1770
1985.6
2075.6
1677.3
1748.5
1657.1
1826.1
1734.7
1815.3
1722.6
1812.6
1721.2
1801.8
1711.8
1800.4
1717.1
1724
1642.1
1742.9
1655.7
1817.6
2121.4
2221.4
1746.6
1829.9
2133.1
2224.7
1739.9
1757.9
1665.2
1828.8
1734.7
1830.1
1738.7
1820.7
1734.7
1823.3
1725.2
1815.2
1709
1801.8
1647.6
1736.2
1658.4
1805.5
2108
2191.2
1719.6
1809.6
2118
2204.7
1712.8
1738.9
1722.6
1811.2
1721.2
1803.1
1710.4
1800.4
1701
1781.5
1701
1781.5
1698.2
1788.2
1646.1
1745.6
1669.1
1825.7
2133.1
2357.5
1882.3
1965.2
2267.5
2221.4
1738.4
1764.6
1738.7
1827.4
1736
1831.4
1733.3
1821.9
1725.2
1797.7
1709
1801.8
1703.7
1792.3
1636.8
1737.6
1659.7
1808.3
2114.6
2214.7
1734.5
1824.5
2121.3
2211.3
1733.2
1756.6
1737.5
1826.1
1741.5
1823.4
1733.4
1812.6
1721.2
1811.2
1719.8
1800.4
1710.4
1799
1643.5
1744.3
1663.7
1816.2
2116.4
2206.4
1733
1816.2
2103
2204.7
1716.8
1734.8
1705
1778.9
1687.5
1776.1
1684.8
1768.1
1678.1
1758.6
1668.6
1757.3
1660.5
1749.2
1585.5
1686.3
1592.4
1685.1
1905
1991.6
1581.7
1702.6
1931.9
2013.5
1615.2
1694.4
1671.3
1753.3
1663.3
1753.3
1653.8
1734.4
1644.4
1733
1643
1724.9
1628.2
1711.5
1576.1
1686.3
1608.5
1693.2
1926.9
2021.9
1610
1708.1
1931.9
2015.1
1607.3
1681.1
1670.1
1765.4
1666
1753.3
1661.9
1749.2
1675.3
1764
1665.9
1746.4
1664.5
1753.2
1607.1
1710.6
1628.8
1785.4
2092.8
2192.8
1718.4
1817.8
2129.7
2218
1734.5
1749.8
1732.1
1811.3
1718.6
1805.9
1707.8
1789.7
1697
1784.2
1694.2
1789.6
1699.6
1789.6
1634
1742.9
1666.5
1825.8
2138.1
2234.8
1746.7
1834
2144.8
2234.8
1742.6
1759.3
1893.4
1972.3
1740.1
1820.7
1722.6
1808.5
1725.2
1807.1
1722.5
1812.5
1729.2
1819.2
1663.6
1757.7
1814.3
1968.2
2272.6
2364.2
1883.6
1979.3
2255.8
2354.2
1731.6
1757.7
1741.4
1973.9
1874.1
1965.5
1875.5
1966.8
1719.8
1808.5
1713
1809.7
1719.7
1803
1623.2
1728
1638
1797.2
2094.7
2196.4
1716.7
1800
2094.7
2194.7
1716.7
1734.7
1719.7
1801.7
1711.7
1788.2
1687.4
1777.4
1679.3
1769.3
1679.3
1762.6
1656.4
1746.4
1581.4
1683.6
1586.9
1748.8
2056
2147.7
1688.6
1771.8
2072.7
2167.7
1692.6
1710.7
1695.7
1788.3
1690.2
1791
1699.6
1773.4
1682.1
1762.6
1672.6
1754.5
1656.4
1755.9
1608.4
1716
1636.8
1720
1945.3
2033.7
1630
1718.7
1940.3
2030.3
1626
1724
1714.4
1797.7
1706.3
1789.6
1706.3
1796.3
1706.3
1788.2
1690.1
1765.3
1672.6
1754.5
1588.2
1682.3
1604.4
1690.4
1921.9
2006.8
1603.2
1678.4
1901.7
1998.5
1573.5
1655.4
1617.5
1704.8
1614.8
1691.3
1594.6
1677.9
1581.2
1671.2
1574.4
1664.4
1574.4
1664.4
1512.9
1609.6
1534.4
1700.4
2007.3
2100.6
1632.1
1722.1
2020.7
2110.7
1624
1640.7
1617.6
1704.9
1602.7
1684.6
1602.7
1691.3
1594.6
1684.6
1587.9
1677.9
1594.6
1677.9
1526.3
1633.9
1564.1
1735.5
2037.5
2139.2
1668.5
1751.8
2060.9
2135.8
1653.7
1677.1
1659.4
1748
1655.3
1735.8
1643.1
1722.3
1632.3
1712.8
1621.5
1711.5
1621.5
1704.8
1573.5
1672.9
1596.4
1761.1
2064.3
2166
1686
1781.4
2082.7
2171.1
1687.3
1705.3
1693
1765.4
1674.1
1754.6
1664.6
1746.5
1648.5
1735.7
1645.7
1724.9
1634.9
1718.2
1584.2
1694.4
1620.7
1778.6
2074.4
2176.1
1686
1784.1
2082.7
2169.4
1685.9
1704
1678.2
1758.7
1668.7
1741.2
1649.8
1731.7
1630.9
1711.5
1628.2
1711.5
1628.2
1718.2
1585.5
1687.7
1603.2
1765.1
2064.3
2162.7
1681.9
1765.2
2071
2152.6
1663
1687.8
1683.5
1764.1
1679.4
1768.1
1670
1758.6
1659.2
1749.2
1656.4
1754.5
1663.2
1745.1
1588.2
1687.6
1599
1716
1945.3
2038.7
1636.9
1726.9
1962.1
2050.5
1644.8
1732.1
1715.8
1805.8
1714.4
1791
1701
1789.6
1699.6
1788.2
1698.2
1788.2
1691.5
1738.5
1566.7
1650
1553.3
1651.4
1891.6
1991.7
1584.4
1675.7
1894.9
1959.8
1546.7
1624.5
1598.7
1687.3
1596
1684.6
1587.9
1671.2
1581.2
1664.4
1574.4
1657.7
1567.7
1657.7
1499.4
1596.2
1519.6
1680.2
1993.9
2083.9
1602.4
1693.7
1978.8
2060.4
1590.3
1617.8
1608.1
1704.9
1620.2
1702.1
1604
1686
1594.6
1684.6
1587.9
1664.4
1574.4
1677.9
1519.6
1616.3
1533
1701.7
2009
2097.4
1629.2
1719.2
2024.1
2114.1
1630.6
1650
1647.1
1742.5
1639
1712.8
1614.8
1704.8
1614.8
1698
1601.3
1691.3
1594.6
1677.9
1519.6
1623
1533
1685.6
1998.9
2109
1624
1710
2010.6
2109
1637.4
1658.1
1640.4
1735.7
1629.6
1711.5
1628.2
1711.5
1614.8
1698
1574.4
1657.7
1567.7
1664.4
1526.3
1631.1
1568.1
1732.8
2042.5
2134.2
1649.6
1739.6
2045.9
2144.2
1662.9
1672.9
1663.3
1753.3
1656.5
1753.3
1655.2
1737.1
1645.7
1727.6
1630.9
1707.5
1628.2
1711.5
1546.5
1637.8
1558.7
1719.2
2027.5
2119.1
1650.9
1731.4
2027.5
2115.8
1638.7
1663.5
1640.4
1723.7
1632.3
1722.3
1630.9
1714.2
1622.8
1704.8
1614.8
1698
1608
1698
1539.8
1636.5
1547.8
1640.6
1863.1
1953.1
1562.7
1637.9
1853
1961.5
1550.6
1639.2
1616.1
1698
1608
1691.3
1594.6
1691.3
1594.6
1684.6
1594.6
1677.9
1594.6
1664.4
1499.4
1602.9
1519.6
1616.3
1843
1948.1
1557.3
1648.7
1878.3
1964.9
1565.4
1660.7
1647.1
1738.5
1645.7
1742.5
1652.5
1741.1
1651.1
1733
1643
1733
1649.7
1746.4
1582.8
1671.4
1592.3
1755.6
2071.1
2154.4
1692.5
1787.9
2089.6
2179.6
1697.9
1716
1699.6
1788.2
1698.2
1788.2
1698.2
1788.2
1698.2
1794.9
1711.7
1801.7
1703.6
1793.6
1636.7
1729.4
1651.6
1812.2
2113.1
2211.4
1723.5
1812.2
2109.7
2188
1701.9
1729.4
1714.4
1803
1729.2
1819.2
1713
1803
1729.2
1825.9
1719.7
1817.8
1735.9
1825.9
1795
1753.6
1663.6
1816.1
2118.1
2203.1
1714.1
1762.3
2046
2136
1642.7
1670.2
1645.7
1720.9
1614.8
1698
1601.3
1684.6
1581.2
1664.4
1574.4
1657.7
1561
1651
1486
1582.7
1499.4
1651.9
1946.9
2050.4
1582.1
1678.8
1980.5
2063.8
1588.8
1677.9
1587.9
1677.9
1587.9
1671.2
1581.2
1664.4
1567.7
1657.7
1561
1651
1444.5
1534.5
1369.5
1459.5
1369.5
1522
1817
1907
1432
1522
1812.5
1902.5
1427.5
1525.6
1435.6
1525.6
1435.6
1525.6
1435.6
1530
1435.6
1525.6
1440
1525.6
1440
1525.6
1365
1455
1365
1459.5
1675
1769.5
1369.5
1459.5
1679.5
1769.5
1369.5
1534.5
1444.5
1534.5
1444.5
1651
1444.5
1534.5
1561
1651
1444.5
1534.5
1444.5
1530
1365
1455
1365
1459.5
1796
1892.7
1499.4
1589.4
1809.4
1899.4
1499.4
1664.4
1574.4
1657.7
1561
1530
1440
1525.6
1435.6
1525.6
1435.6
1530
1440
1530
1365
1459.5
1492.7
1645.2
1960.4
2057.1
1582.1
1688.3
1975.5
2057.1
1582.1
1671.2
1574.4
1657.7
1561
1657.7
1444.5
1534.5
1444.5
1530
1444.5
1534.5
1444.5
1534.5
1492.7
1596.2
1512.9
1666.7
1972.1
2065.4
1588.9
1703.2
2017.4
2105.7
1625.2
1725
1624.2
1714.2
1616.1
1698
1601.3
1698
1594.6
1677.9
1594.6
1677.9
1581.2
1671.2
1519.6
1616.3
1526.3
1700.3
1990.6
2090.6
1626.6
1718
2024.1
2104
1615.8
1708.9
1617.5
1699.4
1616.1
1691.3
1601.3
1684.6
1594.6
1677.9
1594.6
1691.3
1587.9
1677.9
1526.3
1623
1539.8
1693.6
1993.9
2083.9
1606.4
1696.4
1999
2085.6
1609
1704.8
1621.5
1711.5
1621.5
1711.5
1621.5
1704.8
1621.5
1718.2
1628.2
1718.2
1628.2
1718.2
1553.2
1649.9
1561.3
1750.2
2056
2146
1687.2
1788
2077.8
2166.1
1665.6
1746.4
1656.4
1745.1
1648.4
1724.9
1608
1691.3
1587.9
1651
1444.5
1525.6
1431.1
1512.1
1351.6
1450.6
1365
1455
1796
1886
1486
1582.7
1802.7
1892.7
1486
1657.7
1561
1651
1561
1530
1440
1521.1
1435.6
1525.6
1431.1
1521.1
1431.1
1516.6
1360.6
1459.5
1492.7
1596.2
1822.9
1916.2
1531.8
1623.1
1844.7
1933
1523.7
1677.9
1587.9
1671.2
1581.2
1664.4
1574.4
1664.4
1561
1651
1440
1530
1440
1530
1486
1596.2
1526.3
1705.8
2007.3
2110.7
1632.1
1714
2022.4
2115.8
1630.6
1715.6
1622.8
1704.8
1608
1698
1587.9
1691.3
1608
1704.8
1608
1704.8
1621.5
1711.5
1553.2
1643.2
1576.1
1740.8
2029.2
2119.2
1633.2
1734
2032.5
2120.9
1636
1737.1
1648.5
1731.7
1614.8
1704.8
1608
1698
1601.3
1691.3
1594.6
1671.2
1581.2
1664.4
1506.2
1602.9
1512.9
1678.8
1983.9
2077.2
1602.4
1681.5
1977.2
2058.8
1575.4
1677.9
1587.9
1677.9
1581.2
1671.2
1574.4
1657.7
1561
1534.5
1440
1530
1435.6
1521.1
1360.6
1459.5
1369.5
1522
1940.2
2030.2
1561.9
1651.9
1940.2
2030.2
1548.5
1651
1444.5
1534.5
1444.5
1530
1435.6
1525.6
1440
1530
1435.6
1525.6
1440
1534.5
1365
1576
1486
1645.2
1946.9
2036.9
1548.5
1645.2
1933.5
2023.5
1432
1534.5
1440
1530
1435.6
1521.1
1431.1
1516.6
1422.1
1512.1
1422.1
1507.6
1417.6
1507.6
1342.6
1441.6
1342.6
1432.6
1652.6
1747.1
1338.2
1432.6
1643.7
1733.7
1329.2
1315
1225
1315
1225
1316.6
1231.3
1323.6
1235.9
1325.9
1235.9
1330.6
1243
1333
1163.3
1246.3
1150
1240
1460
1550
1150
1240
1460
1550
1150
1315
1226.6
1321.3
1233.6
1325.9
1238.3
1330.6
1240.6
1330.6
1247.7
1340
1250
1337.7
1165.6
1246.3
1151.6
1302.5
1597.5
1866.7
1391.7
1486.2
1781.2
1871.2
1391.7
1494.2
1408.7
1494.2
1404.2
1498.7
1408.7
1494.2
1408.7
1498.7
1408.7
1503.2
1413.2
1503.2
1338.2
1437.1
1351.6
1508.6
1817
2030.2
1575.5
1665.5
1972
2062
1574.1
1673.9
1574.4
1664.4
1567.7
1657.7
1561
1651
1444.5
1534.5
1440
1521.1
1440
1525.6
1369.5
1582.7
1506.2
1673.5
1980.5
2083.9
1622.6
1705.9
2010.6
2087.3
1607.7
1707.5
1616.1
1704.8
1601.3
1691.3
1574.4
1671.2
1574.4
1651
1567.7
1651
1444.5
1534.5
1369.5
1589.4
1519.6
1678.8
1993.9
2095.6
1629.3
1720.7
2015.7
2105.7
1628
1729.1
1629.7
1719.7
1620.2
1707.5
1616.1
1698
1587.9
1664.4
1444.5
1530
1431.1
1521.1
1356.1
1450.6
1356.1
1508.6
1803.6
1889.1
1418.6
1508.6
1803.6
1889.1
1414.1
1507.6
1417.6
1503.2
1408.7
1315
1225
1316.6
1228.9
1321.3
1233.6
1323.6
1233.6
1325.9
1156.3
1240
1333.7
1441.6
1666.1
1756.1
1360.6
1459.5
1796
1886
1486
1651
1561
1651
1567.7
1657.7
1574.4
1664.4
1581.2
1671.2
1587.9
1671.2
1587.9
1677.9
1512.9
1609.6
1512.9
1616.3
1849.8
1939.8
1554.6
1656.7
1849.7
1939.7
1519.6
1657.7
1444.5
1525.6
1426.6
1512.1
1417.6
1507.6
1417.6
1503.2
1413.2
1494.2
1413.2
1498.7
1338.2
1432.6
1351.6
1508.6
1803.6
1893.6
1423.1
1517.5
1808.1
1893.6
1409.6
1525.6
1422.1
1503.2
1408.7
1503.2
1413.2
1494.2
1226.6
1318.9
1233.6
1321.3
1233.6
1321.3
1156.3
1428.2
1351.6
1513.1
1817
2023.5
1432
1522
1817
1907
1427.5
1534.5
1444.5
1534.5
1444.5
1534.5
1444.5
1651
1561
1651
1561
1664.4
1574.4
1671.2
1506.2
1609.6
1533
1685.5
1987.3
2084
1615.7
1712.4
2014.1
2117.6
1642.6
1753.2
1671.2
1769.3
1679.3
1769.3
1682.1
1772.1
1687.4
1777.4
1664.5
1731.6
1641.6
1731.6
1566.6
1663.4
1582.8
1740.8
2029.1
2065.4
1588.9
1685.6
1972.1
2050.3
1432
1534.5
1444.5
1530
1440
1530
1435.6
1521.1
1426.6
1512.1
1417.6
1503.2
1413.2
1498.7
1333.7
1432.6
1356.1
1513.1
1817
1907
1432
1517.5
1808.1
1889.1
1409.6
1512.1
1417.6
1507.6
1413.2
1503.2
1408.7
1494.2
1225
1318.9
1228.9
1318.9
1231.3
1318.9
1151.6
1419.2
1333.7
1428.2
1648.2
1747.1
1347.1
1446.1
1661.6
1756.1
1360.6
1530
1435.6
1525.6
1426.6
1521.1
1431.1
1525.6
1426.6
1525.6
1435.6
1530
1444.5
1651
1486
1589.4
1506.2
1602.9
1822.9
1919.6
1526.3
1623
1851.4
1933
1526.3
1684.6
1601.3
1691.3
1601.3
1684.6
1594.6
1677.9
1581.2
1664.4
1444.5
1651
1444.5
1651
1486
1582.7
1492.7
1651.9
1946.9
2036.9
1568.7
1658.7
1960.4
2043.7
1568.7
1664.4
1574.4
1657.7
1561
1534.5
1444.5
1534.5
1440
1521.1
1426.6
1516.6
1431.1
1512.1
1347.1
1459.5
1499.4
1665.4
1972.1
2072.2
1613.2
1696.4
2003.9
2083.9
1586.2
1688.7
1606.8
1677.9
1581.2
1677.9
1581.2
1664.4
1567.7
1657.7
1440
1534.5
1444.5
1651
1360.6
1589.4
1519.6
1678.8
1985.5
2077.2
1601
1691
1983.9
2070.5
1595.5
1698
1608
1698
1601.3
1698
1614.8
1704.8
1608
1691.3
1594.6
1684.6
1587.9
1684.6
1519.6
1623
1546.5
1712.4
2007.4
2132.6
1656.1
1746.1
2049.4
2110.9
1635.9
1738.4
1656.4
1761.2
1663.2
1754.5
1664.5
1753.2
1663.2
1753.2
1663.2
1753.2
1655.1
1753.2
1588.2
1678.2
1599
1759.6
2059.4
2142.7
1672.3
1763.6
2062.7
2151.1
1665.6
1766.7
1676.7
1765.3
1683.4
1773.4
1664.6
1739.8
1643.1
1725
1614.9
1695.4
1602.7
1684.6
1519.6
1616.3
1526.3
1609.6
1822.9
1912.9
1519.6
1596.2
1816.2
1899.4
1486
1534.5
1440
1525.6
1435.6
1521.1
1426.6
1507.6
1417.6
1503.2
1413.2
1503.2
1413.2
1494.2
1333.7
1428.2
1342.6
1437.1
1661.6
1751.6
1356.1
1446.1
1661.6
1747.1
1347.1
1512.1
1417.6
1503.2
1417.6
1503.2
1413.2
1494.2
1225
1316.6
1228.9
1323.6
1235.9
1328.3
1160.9
1420.8
1342.6
1499.6
1799.1
1893.6
1414.1
1508.6
1803.6
1898.1
1427.5
1534.5
1444.5
1534.5
1444.5
1534.5
1444.5
1534.5
1435.6
1525.6
1440
1534.5
1444.5
1651
1486
1596.2
1526.3
1685.5
1980.5
2070.5
1588.8
1678.8
1973.8
2057.1
1582.1
1677.9
1587.9
1671.2
1574.4
1671.2
1567.7
1664.4
1561
1651
1561
1651
1561
1651
1486
1576
1486
1645.2
1940.2
2036.9
1561.9
1658.7
1967.1
2057.1
1582.1
1671.2
1581.2
1657.7
1574.4
1657.7
1567.7
1651
1567.7
1657.7
1574.4
1664.4
1567.7
1657.7
1499.4
1596.2
1506.2
1665.4
1960.4
2057.1
1582.1
1672.1
1967.1
2063.8
1588.8
1698
1601.3
1691.3
1601.3
1684.6
1574.4
1530
1440
1525.6
1435.6
1530
1435.6
1525.6
1360.6
1446.1
1360.6
1508.6
1803.6
1893.6
1414.1
1504.1
1790.1
1875.7
1396.2
1498.7
1404.2
1498.7
1225
1315
1225
1315
1225
1315
1225
1315
1225
1315
1150
1240
1150
1240
1460
1729.2
1329.2
1419.2
1460
1550
1150
1315
1225
1315
1226.6
1318.9
1231.3
1321.3
1235.9
1325.9
1238.3
1333
1238.3
1328.3
1165.6
1248.6
1150
1419.2
1643.7
1747.1
1356.1
1446.1
1670.6
1756.1
1356.1
1516.6
1422.1
1507.6
1417.6
1507.6
1413.2
1503.2
1417.6
1503.2
1408.7
1494.2
1408.7
1494.2
1338.2
1441.6
1356.1
1522
1933.5
2040.3
1566
1657.4
1955.3
2035.2
1551.2
1651
1561
1651
1435.6
1525.6
1435.6
1503.2
1408.7
1315
1225
1315
1226.6
1323.6
1160.9
1246.3
1150
1302.5
1776.7
1875.7
1400.7
1495.1
1790.1
1880.1
1400.7
1503.2
1413.2
1503.2
1413.2
1503.2
1417.6
1507.6
1408.7
1318.9
1422.1
1507.6
1422.1
1498.7
1333.7
1437.1
1365
1638.5
1933.5
2030.2
1555.2
1645.2
1946.9
2036.9
1561.9
1671.2
1581.2
1671.2
1587.9
1684.6
1594.6
1684.6
1594.6
1691.3
1601.3
1698
1608
1698
1539.8
1629.8
1539.8
1692.3
1994
2084
1609
1705.7
2007.4
2090.7
1615.7
1724.9
1641.6
1724.9
1641.6
1738.4
1648.4
1738.4
1648.4
1724.9
1621.5
1684.6
1574.4
1651
1365
1455
1356.1
1513.1
1799.1
1884.6
1405.1
1495.1
1785.7
1871.2
1391.7
1315
1225
1315
1225
1315
1225
1316.6
1225
1323.6
1228.9
1318.9
1231.3
1321.3
1158.6
1246.3
1150
1240
1639.2
1550
1329.2
1423.7
1643.7
1738.2
1347.1
1507.6
1422.1
1512.1
1417.6
1507.6
1426.6
1525.6
1561
1664.4
1567.7
1651
1440
1530
1365
1455
1351.6
1432.6
1643.7
1729.2
1329.2
1419.2
1639.2
1729.2
1329.2
1315
1225
1315
1225
1315
1225
1318.9
1231.3
1325.9
1238.3
1330.6
1245.3
1337.7
1172.7
1258
1163.3
1311.1
1601.4
1687.5
1212.5
1304.1
1597.5
1693.8
1223.4
1330.6
1240.6
1333
1245.3
1335.3
1247.7
1340
1250
1354.1
1259.4
1351.7
1254.7
1347
1177.3
1265
1168
1315.8
1603.8
1687.5
1212.5
1302.5
1597.5
1687.5
1212.5
1315
1225
1315
1225
1316.6
1231.3
1321.3
1235.9
1328.3
1243
1335.3
1245.3
1335.3
1177.3
1260.3
1158.6
1302.5
1597.5
1866.7
1212.5
1481.7
1776.7
1866.7
1391.7
1315
1225
1315
1225
1315
1226.6
1328.3
1243
1335.3
1243
1333
1243
1333
1170.3
1255.6
1330.8
1495.1
1808.1
2023.5
1568.7
1665.4
1960.4
2050.4
1568.7
1664.4
1561
1657.7
1567.7
1657.7
1444.5
1530
1431.1
1530
1426.6
1516.6
1422.1
1509.2
1347.1
1441.6
1351.6
1508.6
1953.7
2050.4
1588.8
1673.5
1968.8
2057.1
1575.4
1671.2
1574.4
1651
1561
1651
1561
1651
1561
1651
1444.5
1534.5
1444.5
1534.5
1369.5
1459.5
1499.4
1602.9
1822.9
1919.6
1526.3
1609.6
1822.9
1906.2
1486
1530
1435.6
1521.1
1422.1
1507.6
1413.2
1498.7
1410.2
1495.8
1405.8
1321.3
1231.3
1323.6
1158.6
1248.6
1158.6
1248.6
1470.9
1550
1150
1240
1460
1550
1153.9
1318.9
1231.3
1323.6
1238.3
1328.3
1240.6
1328.3
1240.6
1330.6
1245.3
1335.3
1250
1342.3
1177.3
1262.7
1168
1313.4
1603.8
1689.1
1214.1
1481.7
1781.2
1689.1
1391.7
1495.8
1405.8
1495.8
1408.7
1498.7
1408.7
1503.2
1410.2
1504.7
1410.2
1504.7
1419.2
1521.1
1435.6
1450.6
1360.6
1513.1
1817
2023.5
1548.5
1638.5
1933.5
1898.1
1423.1
1530
1435.6
1525.6
1435.6
1525.6
1440
1525.6
1431.1
1521.1
1431.1
1516.6
1431.1
1521.1
1431.1
1450.6
1360.6
1517.5
1808.1
1907
1548.5
1645.2
1946.9
2043.7
1568.7
1684.6
1594.6
1677.9
1594.6
1684.6
1581.2
1664.4
1561
1530
1435.6
1521.1
1422.1
1507.6
1413.2
1428.2
1342.6
1499.6
1790.1
1880.1
1400.7
1486.2
1781.2
1871.2
1396.2
1494.2
1404.2
1494.2
1404.2
1494.2
1404.2
1315
1225
1315
1226.6
1323.6
1231.3
1318.9
1225
1240
1329.2
1486.2
1785.7
1875.7
1405.1
1495.1
1790.1
1875.7
1400.7
1498.7
1404.2
1494.2
1225
1315
1226.6
1318.9
1233.6
1333
1238.3
1325.9
1238.3
1325.9
1240.6
1250.9
1151.6
1419.2
1643.7
1742.6
1342.6
1437.1
1657.1
1742.6
1338.2
1494.2
1225
1494.2
1404.2
1323.6
1235.9
1325.9
1235.9
1333
1240.6
1333
1247.7
1337.7
1247.7
1260.3
1160.9
1419.2
1652.6
1747.1
1347.1
1437.1
1657.1
1747.1
1338.2
1498.7
1413.2
1503.2
1228.9
1318.9
1231.3
1318.9
1231.3
1325.9
1238.3
1333
1235.9
1333
1238.3
1255.6
1156.3
1490.7
1785.7
1880.1
1409.6
1504.1
1799.1
1884.6
1405.1
1498.7
1413.2
1498.7
1408.7
1494.2
1404.2
1315
1225
1316.6
1226.6
1318.9
1228.9
1321.3
1235.9
1250.9
1151.6
1302.5
1781.2
1871.2
1400.7
1490.7
1781.2
1871.2
1214.1
1316.6
1228.9
1321.3
1231.3
1316.6
1231.3
1323.6
1238.3
1333
1250
1330.6
1235.9
1328.3
1235.9
1420.8
1329.2
1486.2
1785.7
1875.7
1405.1
1499.6
1812.5
1902.5
1427.5
1530
1444.5
1534.5
1444.5
1651
1561
1651
1561
1534.5
1444.5
1530
1444.5
1530
1435.6
1455
1369.5
1638.5
1940.2
2036.9
1568.7
1651.9
1940.2
2030.2
1427.5
1534.5
1561
1534.5
1444.5
1534.5
1440
1530
1435.6
1525.6
1435.6
1525.6
1435.6
1521.1
1431.1
1446.1
1369.5
1522
1933.5
2030.2
1568.7
1658.7
1953.7
2043.7
1561.9
1664.4
1574.4
1657.7
1567.7
1651
1444.5
1651
1561
1651
1444.5
1530
1440
1534.5
1444.5
1576
1492.7
1596.2
1829.6
1926.3
1526.3
1616.3
1829.6
1912.9
1512.9
1677.9
1581.2
1671.2
1587.9
1671.2
1581.2
1671.2
1587.9
1677.9
1581.2
1677.9
1587.9
1671.2
1574.4
1596.2
1519.6
1623
1843
1948.1
1549.2
1639.2
1849.8
1926.3
1519.6
1664.4
1574.4
1657.7
1567.7
1657.7
1567.7
1657.7
1567.7
1657.7
1574.4
1664.4
1581.2
1671.2
1574.4
1596.2
1506.2
1665.4
1967.1
2063.8
1595.5
1699
2000.7
2090.7
1602.3
1718.2
1628.2
1731.6
1641.6
1738.4
1655.1
1753.2
1671.2
1762.6
1641.6
1698
1601.3
1677.9
1574.4
1582.7
1486
1522
1817
1907
1548.5
1638.5
1817
1907
1427.5
1525.6
1435.6
1525.6
1435.6
1525.6
1431.1
1516.6
1426.6
1512.1
1422.1
1507.6
1413.2
1503.2
1408.7
1423.7
1338.2
1495.1
1790.1
1880.1
1405.1
1504.1
1794.6
1880.1
1405.1
1512.1
1426.6
1516.6
1431.1
1521.1
1431.1
1530
1435.6
1525.6
1440
1534.5
1567.7
1657.7
1574.4
1596.2
1506.2
1665.4
1967.1
2063.8
1588.8
1678.8
1973.8
2063.8
1595.5
1698
1614.8
1698
1608
1691.3
1587.9
1677.9
1587.9
1671.2
1581.2
1664.4
1567.7
1657.7
1431.1
1428.2
1333.7
1486.2
1776.7
1866.7
1391.7
1481.7
1781.2
1687.5
1212.5
1315
1226.6
1321.3
1233.6
1328.3
1240.6
1330.6
1240.6
1328.3
1240.6
1330.6
1243
1335.3
1247.7
1262.7
1170.3
1255.6
1473.3
1558.6
1158.6
1248.6
1468.6
1558.6
1160.9
1328.3
1238.3
1330.6
1238.3
1325.9
1235.9
1328.3
1235.9
1328.3
1240.6
1333
1243
1335.3
1247.7
1262.7
1168
1250.9
1466.3
1553.9
1153.9
1240
1460
1553.9
1156.3
1323.6
1235.9
1328.3
1235.9
1328.3
1243
1335.3
1245.3
1333
1245.3
1330.6
1243
1333
1245.3
1253.3
1160.9
1308.8
1776.7
1875.7
1405.1
1495.1
1794.6
1884.6
1409.6
1512.1
1422.1
1521.1
1426.6
1530
1426.6
1534.5
1567.7
1651
1444.5
1534.5
1567.7
1664.4
1574.4
1589.4
1512.9
1658.7
1973.8
2063.8
1595.5
1692.3
1994
2084
1609
1711.5
1614.8
1704.8
1608
1677.9
1581.2
1677.9
1581.2
1664.4
1574.4
1651
1567.7
1651
1561
1582.7
1492.7
1651.9
1946.9
2043.7
1588.8
1678.8
1980.5
2070.5
1595.5
1704.8
1614.8
1704.8
1614.8
1724.9
1641.6
1738.4
1679.3
1759.9
1679.3
1764
1674
1764
1675.3
1690.3
1600.3
1752.8
2059.4
2147.7
1669.6
1752.8
2059.4
2134.3
1638.6
1749.2
1634.9
1727.6
1621.5
1704.8
1614.8
1704.8
1614.8
1698
1601.3
1691.3
1594.6
1684.6
1581.2
1602.9
1519.6
1685.5
1967.1
2077.3
1609
1705.7
2000.7
2090.7
1609
1718.2
1634.9
1731.6
1621.5
1711.5
1628.2
1718.2
1574.4
1525.6
1431.1
1521.1
1422.1
1507.6
1413.2
1428.2
1342.6
1432.6
1657.1
1747.1
1347.1
1437.1
1661.6
1751.6
1347.1
1512.1
1426.6
1516.6
1431.1
1521.1
1431.1
1525.6
1431.1
1521.1
1435.6
1525.6
1440
1525.6
1440
1455
1486
1589.4
1816.2
1912.9
1526.3
1623
1849.8
1939.8
1546.5
1711.5
1621.5
1698
1444.5
1525.6
1417.6
1498.7
1225
1316.6
1228.9
1323.6
1233.6
1323.6
1233.6
1248.6
1158.6
1306.4
1601.4
1691.4
1218.8
1308.8
1603.8
1691.4
1216.4
1316.6
1231.3
1325.9
1240.6
1330.6
1240.6
1330.6
1247.7
1337.7
1247.7
1330.6
1235.9
1502.8
1412.6
1429.7
1342.6
1499.6
1799.1
1889.1
1404.6
1492.4
1783
1873
1398
1500.5
1414.9
1502.6
1410.2
1500.2
1231.3
1325.9
1410.5
1325.9
1235.9
1325.9
1233.6
1502.6
1412.6
1425.2
1339.7
1495.1
1790.1
1880.1
1405.1
1499.6
1799.1
1889.1
1414.1
1516.6
1431.1
1525.6
1435.6
1525.6
1435.6
1521.1
1431.1
1521.1
1431.1
1516.6
1422.1
1512.1
1426.6
1446.1
1356.1
1499.6
1790.1
1884.6
1405.1
1495.1
1790.1
1880.1
1396.2
1498.7
1404.2
1494.2
1225
1315
1226.6
1316.6
