Power [kW]
890.4
899.85
898.8
911.19
915.81
931.98
953.61
971.67
979.23
976.29
976.29
980.07
986.79
980.07
984.06
980.07
968.1
950.88
940.59
954.66
935.76
933.87
930.09
942.48
931.98
934.92
934.08
931.98
942.27
955.71
983.85
1016.19
1033.2
1028.37
1016.19
1014.3
1002.96
999.81
992.25
983.22
977.34
983.01
984.9
991.41
989.73
992.67
979.23
977.34
966.21
957.39
966
960.33
963.27
981.12
991.62
1013.46
1013.25
994.35
983.01
974.4
966
956.55
950.88
952.56
938.49
958.44
971.67
977.34
954.66
946.05
935.97
933.87
927.15
930.93
923.58
930.09
937.44
970.62
1004.64
1064.28
1103.13
1125.6
1144.71
1152.9
1147.65
1149.33
1123.71
1087.8
1047.27
1019.76
998.13
985.95
971.88
971.88
965.16
982.17
982.8
974.4
958.44
955.71
985.95
1042.44
1083.18
1131.48
1186.29
1220.31
1248.66
1271.13
1301.37
1273.23
1274.07
1256.22
1232.49
1196.58
1181.46
1177.68
1152.06
1147.44
1137.15
1139.04
1115.31
1119.09
1090.74
1073.94
1102.08
1142.82
1148.28
1176.84
1216.53
1216.32
1268.4
1269.45
1240.89
1221.15
1194.69
1191.75
1159.83
1135.89
1099.14
1086.75
1051.89
1053.99
1045.38
1037.82
1031.1
1032.99
1040.76
1040.76
1055.88
1067.22
1108.8
1161.51
1212.54
1220.1
1217.37
1229.76
1211.49
1203.3
1179.57
1164.66
1139.88
1118.25
1079.4
1064.28
1010.31
1006.74
1000.02
990.57
980.28
983.01
989.52
984.06
1002.96
1025.64
1063.23
1125.81
1156.05
1166.55
1166.34
1173.06
1164.24
1131.27
1129.38
1101.24
1090.74
1043.49
1018.92
999.18
981.12
953.61
935.76
929.04
922.53
933.87
930.09
923.58
931.14
938.49
956.55
986.79
984.9
988.68
981.12
983.01
995.19
998.13
997.08
974.61
978.18
976.29
985.74
982.17
945
935.97
919.59
912.24
911.19
908.46
923.37
931.98
929.25
934.92
964.11
994.35
991.62
996.03
1012.41
1031.1
1043.49
1029.42
1017.87
981.33
946.05
944.16
936.81
945.21
916.86
914.13
913.08
910.14
901.74
905.52
913.92
920.64
933.87
961.38
999.18
1073.52
1110.48
1131.27
1149.12
1156.68
1156.68
1152.06
1126.44
1133.16
1114.26
1118.04
1064.28
1062.18
1055.88
1036.77
1029.42
1024.59
1037.82
1045.38
1047.48
1039.71
1061.34
1088.85
1110.48
1153.11
1201.41
1215.27
1223.25
1208.76
1178.52
1170.12
1193.64
1184.4
1148.49
1116.15
1082.34
1085.07
1037.82
1013.25
1013.46
1016.19
990.57
1013.04
1014.09
1020.81
1044.33
1078.56
1121.82
1181.46
1204.14
1184.19
1197.42
1192.8
1207.92
1178.52
1166.34
1122.87
1090.74
1081.5
1043.49
1024.59
1010.31
1018.08
996.24
983.01
966.84
960.54
962.22
969.99
996.24
1009.47
1052.73
1088.01
1147.44
1155
1141.77
1182.51
1208.76
1187.97
1166.34
1146.39
1108.8
1090.74
1074.78
1048.32
1033.2
1039.5
1021.86
1002.96
983.01
986.79
989.73
992.67
1012.2
1038.87
1067.01
1118.88
1150.38
1152.06
1144.71
1148.49
1148.49
1137.78
1115.31
1097.25
1078.35
1044.33
1025.64
998.97
994.56
985.95
977.34
969.78
933.03
932.19
921.69
917.91
922.53
934.71
958.23
987.63
1005.69
995.19
997.92
1000.02
984.9
985.95
981.96
959.28
948.99
946.05
946.26
966
949.83
945.21
938.7
919.59
915.81
910.98
904.68
900.69
904.68
914.97
947.94
982.17
983.01
976.5
983.85
983.01
979.23
970.62
954.66
916.86
912.03
926.31
914.13
926.31
914.76
914.13
908.25
910.14
895.02
891.45
893.97
892.29
918.96
950.04
976.29
1045.17
1129.38
1155
1129.38
1106.91
1108.8
1110.69
1097.25
1094.52
1074.57
1082.13
1034.25
1024.38
1020.81
994.35
998.13
986.79
984.06
998.97
1015.14
1015.14
1036.98
1055.88
1085.07
1143.66
1215.27
1227.66
1207.92
1194.69
1201.2
1185.24
1161.51
1155
1119.09
1086.96
1060.5
1046.43
1013.25
1003.8
984.9
977.34
963.27
959.49
955.71
950.88
969.78
990.57
1036.98
1014.3
1129.59
1154.16
1137.99
1124.55
1118.25
1093.68
1072.89
1090.74
1069.74
1033.2
1003.8
1006.74
984.9
969.78
941.43
925.26
917.91
914.76
913.92
926.31
948.15
971.67
1008.42
1080.45
1133.37
1110.48
1104.81
1115.31
1098.3
1077.51
1055.67
1048.32
1017.03
1007.58
972.72
968.73
947.94
925.26
924.21
914.76
895.02
905.31
899.85
905.52
937.65
995.19
1006.74
1068.9
1118.88
1145.55
1175.79
1187.97
1175.79
1160.67
1149.33
1155.84
1133.37
1089.69
1054.83
1045.38
1033.2
1004.01
1000.86
1000.02
987.63
978.18
986.79
980.91
993.51
998.97
1022.7
1047.27
1039.71
1033.83
1032.36
1034.04
1044.33
1050.21
1029.42
1047.27
1032.99
1040.76
1037.82
1040.55
1025.64
1015.98
1011.36
1022.7
1005.69
996.24
969.78
982.17
994.35
1003.8
1034.04
1048.11
1037.82
1049.16
1035.93
1031.31
997.08
984.06
982.17
946.05
934.71
964.32
976.5
994.35
1001.91
985.95
964.11
966
966
975.45
971.67
976.5
1001.91
1009.68
1047.27
1089.9
1118.04
1158.78
1162.56
1143.66
1191.75
1174.74
1169.28
1155
1118.04
1120.14
1072.68
1069.11
1050
1040.76
1027.53
1028.37
1021.86
1006.53
994.14
998.97
1015.14
1016.19
1059.66
1117.2
1149.33
1155.84
1152.27
1140.72
1140.72
1121.82
1114.47
1112.37
1077.51
1047.27
1041.6
1015.35
1003.8
975.45
952.77
946.26
933.03
924.63
930.93
925.26
929.04
948.15
993.51
1055.67
1105.02
1116.36
1111.53
1143.66
1109.64
1088.64
1090.74
1061.34
1045.59
1011.15
976.5
987.63
972.51
970.62
969.78
947.94
940.59
948.99
954.66
956.55
975.45
977.55
1027.53
1089.69
1131.48
1139.88
1137.99
1127.7
1109.64
1087.17
1074.57
1069.95
1055.67
1027.32
1015.98
1000.02
978.39
973.56
962.22
947.94
931.98
927.36
935.97
931.14
950.04
987.63
1015.14
1054.83
1086.96
1120.98
1132.32
1111.53
1098.3
1094.52
1068.06
1069.95
886.83
1020.81
988.68
1012.2
978.39
954.66
945.21
937.65
935.97
939.54
944.16
939.54
946.26
967.89
985.74
1008.42
1020.6
1012.41
1015.14
1011.15
1004.85
1002.12
997.92
984.9
969.57
969.57
961.38
950.88
950.04
952.77
936.6
941.22
944.37
938.49
931.14
943.32
947.1
962.01
977.13
987.84
999.18
973.56
964.95
954.66
936.81
936.81
939.75
934.92
926.52
934.92
912.03
928.2
921.69
918.75
920.64
912.03
903.63
907.41
917.7
920.64
929.04
953.82
986.79
1050
1078.56
1105.86
1108.8
1122.03
1121.19
1102.08
1073.73
1058.61
1032.15
999.18
964.11
989.52
954.66
950.04
932.82
911.19
898.8
914.13
920.64
927.99
945
966
1021.65
1078.56
1098.3
1114.47
1118.25
1141.98
1123.71
1104.81
1105.65
1084.23
1041.6
1018.92
985.74
1004.64
970.83
960.33
951.72
931.98
917.7
926.1
925.47
923.58
928.2
942.27
972.72
1020.6
1061.34
1078.35
1086.75
1091.79
1096.62
1090.74
1117.2
1098.3
1076.46
1055.88
995.4
1002.96
985.95
945.21
932.19
900.69
873.39
872.34
868.56
874.44
885.78
906.57
948.15
995.19
1025.43
1024.8
986.79
1034.04
1046.43
1044.33
1009.47
1029.42
1010.52
977.34
945.21
958.23
922.53
908.25
906.57
897.12
880.11
877.17
882.84
889.35
900.69
934.71
964.11
1019.97
1065.12
1079.4
1077.51
1108.8
1095.36
1072.89
1063.44
1051.05
1036.77
1013.25
992.46
995.4
984.06
964.95
964.11
945.21
935.76
927.36
925.47
924.42
930.93
955.71
983.01
1007.37
1011.36
1007.58
1006.53
1020.81
1014.09
1014.3
1004.64
981.33
990.57
984.9
966.84
979.02
978.39
970.62
965.16
964.11
954.66
954.66
959.28
959.49
976.29
993.51
1016.19
1026.48
1012.41
1004.85
990.36
976.29
977.34
983.85
979.23
973.56
967.05
985.95
969.78
973.35
966.84
952.98
951.93
940.38
941.43
947.1
949.2
955.5
967.05
989.73
1013.25
1058.61
1106.91
1127.7
1105.02
1110.69
1120.98
1115.31
1114.26
1099.35
1061.55
1045.38
1015.98
1000.86
1007.58
985.95
976.5
965.16
967.68
980.28
973.56
974.61
990.57
1016.19
1040.55
1087.8
1125.6
1140.72
1147.44
1143.66
1148.28
1173.06
1151.01
1150.17
1115.31
1103.97
1060.5
1044.33
1024.59
1005.69
989.73
987.63
980.07
968.1
948.99
955.5
969.78
989.73
1021.86
1054.83
1057.77
1072.89
1125.81
1120.98
1073.73
1085.91
1089.69
1037.82
990.57
966
946.05
927.36
947.1
916.02
923.58
914.13
911.4
918.96
917.91
920.64
936.81
955.5
1003.8
998.13
1020.81
1032.99
1037.82
1046.43
1106.7
1090.74
1082.13
1085.07
1098.09
1062.39
1064.28
1042.44
1041.39
1009.26
1003.8
1001.91
999.18
995.4
983.01
991.62
1014.09
1042.44
1086.75
1122.87
1195.74
1186.08
1170.12
1181.46
1160.67
1140.72
1140.72
1131.48
1095.36
1065.12
1042.44
1011.36
991.41
974.4
963.06
964.11
957.6
964.11
963.06
970.62
972.72
995.19
1021.65
1031.1
1034.04
1029.21
1041.6
1037.61
1031.1
1029.21
1028.16
1041.81
1034.04
1043.49
1067.01
1059.66
1060.5
1062.39
1038.87
1036.98
1031.31
1024.59
1031.31
1029.42
1039.92
1059.45
1085.07
1094.52
1098.09
1095.57
1097.46
1107.96
1097.25
1088.01
1082.97
1077.3
1057.77
1071
1055.88
1072.68
1047.48
1045.38
1031.31
1030.26
1024.38
1036.77
1035.09
1031.31
1058.82
1085.91
1113.63
1162.56
1205.82
1248.66
1248.45
1252.23
1258.95
1241.94
1218.42
1192.59
1168.23
1129.38
1085.07
1086.75
1064.28
1023.75
1007.58
1023.54
1006.53
1010.52
998.97
997.29
1011.36
1026.27
1050.21
1108.59
1175.79
1174.95
1172.01
1180.62
1178.73
1169.28
1155
1132.32
1101.24
1060.5
1057.56
1028.37
994.35
951.93
944.16
930.09
915.81
912.24
927.15
929.25
944.16
969.78
1003.8
968.73
1056.72
1112.58
1110.48
1113.63
1134.21
1129.59
1110.48
1090.74
1087.17
1055.88
1003.8
1011.36
993.51
985.74
960.12
923.37
909.3
916.86
902.79
918.75
945.21
966.21
994.56
1036.77
1101.24
1115.31
1104.81
1112.58
1092.63
1091.79
1067.01
1056.72
1032.99
1003.8
967.89
959.28
953.61
945
927.15
916.65
911.19
909.3
902.79
906.36
937.44
961.17
988.68
1042.65
1095.57
1114.26
1142.61
1154.16
1144.71
1105.65
1101.24
1091.79
1073.52
1049.16
1012.41
1005.9
974.4
942.27
926.31
908.46
906.36
909.3
909.3
909.3
906.57
923.37
942.27
959.28
969.78
969.78
971.67
970.62
970.83
962.22
951.72
941.43
911.19
899.85
915.18
916.02
912.87
897.12
882.84
873.39
880.11
878.22
884.73
877.17
872.55
883.89
885.57
894.18
914.97
910.35
906.57
913.08
908.46
914.76
910.14
887.67
892.5
902.79
870.45
878.01
869.61
870.66
862.89
857.22
858.48
833.7
837.48
840.21
857.43
882.63
912.03
954.66
979.23
997.29
1013.25
1041.81
1025.64
1010.31
1008.63
1007.58
989.52
962.43
919.59
916.65
887.46
856.17
859.11
845.88
840.21
853.44
865.83
865.83
868.77
897.96
948.99
1000.02
1049.16
1071.63
1079.4
1083.39
1097.25
1087.8
1073.73
1082.13
1065.33
1037.82
997.29
986.79
967.68
955.5
948.99
930.93
912.03
920.64
920.85
923.58
924.63
966
1007.58
1006.53
1075.62
1064.28
1097.25
1098.3
1103.13
1101.03
1078.35
1073.73
1042.65
1039.71
987.63
970.83
950.88
933.03
918.75
899.85
879.06
877.17
874.23
866.88
867.51
886.62
905.52
951.93
985.74
1012.41
1025.43
1019.76
1053.78
1037.82
1019.97
1012.2
989.73
966
929.88
912.24
901.74
879.06
863.94
844.2
833.7
829.08
838.32
846.09
865.83
881.79
920.64
969.99
1023.75
1052.1
1039.71
1040.55
1049.16
1039.71
1025.43
1015.14
1002.75
957.39
942.48
943.32
936.81
928.2
917.91
896.07
895.02
903.63
903.63
903.63
904.47
928.2
951.93
958.44
990.36
979.02
972.72
968.73
940.59
944.37
934.92
916.86
902.58
911.4
912.24
918.75
900.9
902.58
888.51
894.18
875.28
885.57
873.39
883.68
874.23
886.41
903.63
918.54
925.47
933.03
940.59
947.94
943.53
938.7
921.48
914.97
899.85
893.34
912.87
914.76
897.12
887.67
880.95
878.22
874.44
870.66
863.94
870.66
890.61
902.79
932.82
978.18
1007.58
1027.32
1056.72
1068.9
1077.51
1068.06
1051.89
970.83
990.57
971.88
951.93
927.36
926.31
903.63
871.5
881.79
844.2
864.78
856.59
855.54
863.1
885.78
927.36
981.12
1026.48
1015.98
1037.82
1042.65
1047.27
1046.43
1031.1
1034.04
1014.09
1013.25
980.07
962.22
939.75
918.54
905.52
887.67
873.39
869.61
862.89
833.7
837.48
860.16
898.8
945.42
1009.47
1018.08
1033.2
1039.92
1040.55
1035.93
1028.37
1006.53
995.19
956.55
922.53
922.74
908.25
912.24
916.02
917.7
907.41
901.74
911.19
912.24
915.81
930.93
971.88
1001.07
1072.68
1073.73
1084.02
1103.97
1097.46
1085.07
1079.61
1057.56
1051.05
1049.16
1028.16
1019.76
987.63
990.36
979.23
980.91
966.84
979.44
954.66
941.22
952.98
975.45
1010.31
1045.17
1111.53
1128.33
1127.7
1135.05
1146.6
1125.6
1104.81
1082.13
1032.15
1026.48
996.24
998.13
962.01
960.33
944.16
939.54
927.99
924.42
922.53
934.92
942.27
971.67
977.34
992.46
990.57
998.13
996.03
981.12
975.45
974.4
968.94
948.15
940.38
948.99
936.81
954.66
948.15
949.83
948.78
951.93
953.61
954.66
958.23
963.27
967.89
977.34
986.79
1001.91
999.18
994.35
981.96
981.96
974.61
967.05
950.67
945
926.52
937.65
938.7
966.84
962.22
956.55
951.93
948.15
947.1
955.71
948.78
954.45
959.49
968.94
1010.52
1037.82
1053.78
1069.95
1070.79
1085.07
1094.52
1101.24
1076.46
1054.83
1034.25
1032.15
1009.47
966.84
941.64
923.37
906.57
889.56
880.11
890.19
903.42
899.85
907.41
923.37
961.17
1010.52
1054.83
1063.23
1072.68
1103.13
1119.09
1100.4
1081.29
1048.32
1035.09
1023.75
968.73
968.73
944.16
930.09
919.8
905.52
896.91
904.47
908.46
881.79
874.44
911.19
950.04
991.41
1026.48
1032.15
1076.46
1131.48
1141.77
1137.99
1137.99
1123.92
1105.86
1080.24
1035.93
1017.03
993.3
970.62
968.73
930.93
915.81
908.46
910.98
909.3
903.63
908.46
948.99
983.85
1043.49
1095.57
1118.04
1142.61
1157.73
1144.5
1134.21
1140.72
1142.82
1089.69
1068.06
1034.25
1007.58
992.46
977.34
971.67
953.61
952.56
939.54
912.03
910.35
927.36
945
976.29
1031.94
1031.31
1021.86
1030.47
1043.49
1038.66
1052.1
1048.32
1007.58
948.15
916.02
907.41
873.6
849.66
833.91
833.7
828.03
826.98
818.58
838.53
844.2
861.21
882.84
907.62
928.2
902.58
906.57
918.54
930.93
947.1
956.55
929.25
898.8
909.3
937.86
919.8
896.91
869.61
852.81
847.98
836.43
836.43
205.17
620.13
832.86
853.65
862.89
886.62
900.9
904.68
934.71
933.87
939.75
941.43
948.15
930.09
933.87
909.51
894.18
924.21
899.85
891.24
874.44
861
855.54
851.76
852.6
852.39
854.49
880.11
926.31
974.4
1009.47
1039.5
1052.1
1063.23
1072.89
1064.28
1061.55
1048.32
1019.76
984.69
940.38
963.06
931.77
908.25
898.17
885.78
892.29
897.96
888.51
890.4
892.29
918.54
965.16
1001.91
1054.83
1066.17
1036.98
1079.61
1092.63
1093.47
1072.89
1066.17
1039.92
998.13
995.4
984.9
950.04
898.8
876.12
873.39
850.71
845.04
845.04
843.15
862.05
889.56
925.26
904.68
947.1
1001.91
1035.09
1058.82
1058.61
1066.17
1079.4
1065.33
1050
993.51
959.49
931.98
915.81
895.02
877.17
855.33
831.81
833.7
843.99
852.6
847.98
864.78
893.34
927.36
981.12
989.73
1020.81
1035.93
1053.99
1041.6
1024.59
1030.26
1008.63
972.51
946.05
920.85
918.75
894.18
884.73
866.88
834.54
840.21
849.87
843.15
853.65
899.01
934.71
961.38
1001.07
1005.69
1028.37
1045.38
1047.27
1044.54
1011.36
1002.75
981.96
962.22
929.25
906.36
878.01
872.55
859.11
846.93
821.31
783.51
795.9
830.76
833.7
839.37
849.87
866.88
872.34
866.88
878.01
891.45
896.07
886.62
888.51
870.45
867.72
870.45
847.98
863.1
858.27
845.04
831.81
840.21
832.65
826.98
825.3
826.98
833.7
809.13
815.64
832.86
838.32
834.75
837.27
838.53
848.82
837.48
825.93
823.2
813.75
820.47
808.08
824.25
825.3
824.25
817.53
846.09
858.48
851.76
863.94
855.33
880.95
921.69
933.87
964.95
993.3
1025.43
1034.04
1041.6
1036.77
1031.1
1016.19
990.57
968.94
926.52
921.48
934.92
943.32
908.46
895.02
876.12
864.78
869.61
880.95
878.22
887.67
932.19
969.78
1021.65
1070.79
1061.55
1048.32
1058.61
1076.46
1069.11
1066.17
1049.16
1020.81
996.24
981.12
960.54
948.99
938.49
948.15
900.69
876.12
872.34
873.39
874.44
882
912.24
970.62
991.41
1023.75
1043.7
1058.4
1064.28
1065.33
1062.39
1045.38
1029.21
1007.58
981.96
952.77
931.14
914.13
896.91
883.68
858.27
835.59
828.87
827.19
832.65
829.92
837.48
878.85
935.76
971.67
984.06
1010.31
1011.36
1026.48
1015.14
1020.81
996.24
964.32
944.37
934.92
909.51
892.5
873.6
873.39
855.33
847.98
839.37
836.43
828.87
839.37
866.67
899.64
940.59
989.52
1028.37
1063.23
1188.18
1172.85
1170.12
1153.95
1148.49
1116.15
1074.78
1004.85
975.45
941.43
917.7
892.29
867.51
856.38
858.27
868.56
868.77
872.55
890.4
913.08
934.92
945.21
933.66
931.14
940.59
934.08
926.31
930.93
917.7
910.35
921.48
895.23
893.13
899.01
898.8
888.72
869.61
865.83
871.5
866.88
861
864.15
889.35
909.3
921.69
942.48
931.14
932.19
929.04
934.71
933.87
929.04
919.59
906.57
918.75
907.41
902.58
897.96
893.13
887.46
883.05
870.45
869.4
866.67
863.94
875.28
897.96
937.65
982.17
1012.2
1039.71
1050.21
1053.15
1050.21
1037.82
1050.21
1021.86
1007.79
962.22
931.14
917.91
926.31
916.02
904.47
883.89
868.77
861.21
861
866.67
861.21
890.4
930.09
969.78
1017.87
1031.1
1054.83
1044.54
1071.84
1052.94
1025.64
1013.46
1008.63
985.74
927.36
887.46
897.12
858.27
843.99
825.3
802.62
799.68
807.24
811.02
842.31
866.67
917.07
951.09
1012.2
1032.15
1049.16
1053.78
1058.61
1051.26
1033.2
1011.15
1001.91
995.4
939.33
942.27
897.96
890.4
875.07
862.89
848.82
855.33
853.44
855.54
854.49
860.16
914.13
964.95
1024.59
1043.28
1112.37
1133.37
1120.98
1103.13
1109.64
1109.64
1096.2
1064.28
1051.89
1007.58
992.46
989.73
989.73
981.96
966
964.11
976.29
977.34
987.63
1023.75
1040.76
1087.8
1155
1167.18
1189.02
1194.69
1187.97
1187.97
1193.64
1195.74
1173.9
1122.03
1088.85
1056.72
1031.31
1016.82
1007.58
966
895.86
882.84
877.17
881.79
876.33
869.82
890.4
916.02
924.42
912.24
913.08
918.75
928.41
922.53
930.93
941.64
912.03
918.75
889.56
865.83
853.44
847.98
846.93
838.32
834.54
835.59
831.81
842.31
825.93
818.79
832.86
858.27
870.45
858.06
870.66
862.89
862.26
879.06
876.33
860.16
850.71
860.16
842.1
837.48
834.75
844.2
843.15
837.48
828.03
823.2
819.63
812.7
826.98
852.6
890.4
962.01
1006.74
1052.73
1048.11
1062.39
1072.05
1048.32
1063.44
1049.16
1047.27
1012.2
968.73
948.99
912.24
894.39
897.12
908.25
891.45
889.35
896.07
893.34
909.3
943.32
973.56
1032.15
1053.78
1097.46
1112.37
1107.75
1089.9
1086.12
1073.52
1075.62
1042.65
1005.69
966.84
941.64
939.54
916.86
918.75
906.36
893.34
892.08
897.75
886.62
902.79
927.36
958.44
1018.08
1046.43
1070.79
1109.43
1112.37
1088.85
1073.73
1050.21
1053.78
1030.26
997.29
966
947.94
944.37
937.65
924.42
906.36
882.84
882.84
879.06
878.01
878.85
910.35
951.93
983.01
1026.48
1046.43
1054.83
1060.29
1059.66
1052.94
1060.5
1041.6
1008.42
976.5
968.94
939.54
919.59
915.81
914.13
893.13
880.95
882
880.11
874.44
882.84
906.57
938.49
982.8
1005.69
1021.86
1041.81
1050
1052.94
1045.38
1028.37
1015.98
992.67
959.28
921.69
916.86
908.46
892.29
884.73
863.94
841.26
836.64
840.21
841.26
860.16
877.17
876.33
895.23
901.74
902.58
908.46
919.59
939.54
922.53
932.82
929.25
909.09
916.86
903.63
889.35
879.9
868.77
862.26
861
852.6
853.65
861.21
861.21
876.33
887.46
900.69
916.02
931.14
926.31
928.2
916.86
925.47
909.09
899.85
901.74
910.35
909.3
894.18
868.56
886.62
874.44
868.77
868.56
859.11
869.61
866.88
886.83
890.4
913.92
950.04
997.08
1025.64
1036.77
1057.77
1069.95
1055.88
1035.72
1033.2
1039.71
1017.87
986.79
941.43
931.14
913.08
930.93
918.75
922.53
887.67
872.55
888.51
875.28
897.12
907.41
1035.93
1060.71
1073.73
1100.19
1085.07
1053.78
1077.51
1043.49
1047.27
1053.15
1026.48
993.3
945.21
910.14
897.12
883.68
861
833.91
824.46
821.52
828.87
827.19
843.15
864.78
886.83
927.99
971.46
1003.8
1023.54
1043.49
1052.94
1040.76
1022.7
1000.86
977.55
944.16
912.24
908.46
903.63
892.29
863.73
861
830.97
814.8
819.42
820.26
824.25
835.59
863.73
922.53
983.85
1010.31
1041.39
1034.04
1055.88
1028.37
1010.52
1007.37
989.52
948.99
926.31
888.3
882
876.12
872.55
840.21
822.57
821.31
805.14
795.06
803.46
840.21
858.27
912.24
978.18
1009.47
1025.64
1043.49
1032.15
1011.15
1001.7
976.19
952.56
950.67
908.15
893.03
875.07
864.68
853.34
841.05
828.77
818.37
804.2
794.75
805.14
807.03
843.89
872.24
894.92
884.52
889.25
886.41
898.7
888.3
899.64
888.3
883.58
873.18
852.39
849.56
842
832.55
830.66
834.44
819.32
821.21
824.99
824.99
822.15
822.15
824.99
855.23
860.9
863.73
869.4
872.24
873.18
876.96
883.58
873.18
878.85
884.52
846.72
846.72
839.16
833.49
823.1
824.04
817.43
821.21
820.26
809.87
813.65
834.44
853.34
911.93
955.4
986.58
1013.04
1031.94
1109.43
1148.18
1158.57
1133.06
1116.05
1081.08
1049.9
1016.82
979.02
932.72
917.6
892.08
864.68
862.79
863.73
866.57
867.51
882.63
909.09
963.9
1039.5
1065.02
1110.38
1124.55
1137.78
1122.66
1114.16
1097.15
1066.91
1047.06
986.58
976.19
927.99
904.37
888.3
874.13
854.28
856.17
857.12
850.5
849.56
867.51
902.48
888.3
998.87
1039.5
1049.9
1065.02
1081.08
1073.52
1065.02
1064.07
1039.5
1001.7
978.08
954.45
927.99
910.04
903.63
876.33
855.33
857.12
852.39
841.05
842.94
874.13
910.04
956.34
1019.66
1055.57
1068.8
1082.03
1090.53
1102.82
1119.83
972.41
940.28
1091.48
1039.5
952.56
841.05
835.38
824.04
819.32
801.36
849.56
962.96
925.16
921.38
939.33
961.07
1018.71
1111.32
1130.22
1167.08
1201.1
1210.55
1203.93
1214.33
1203.93
1172.75
1130.22
1113.21
1079.19
1077.3
1052.73
1030.05
1011.15
978.08
969.57
970.52
965.79
967.68
978.08
990.36
1019.66
1019.66
1015.88
1032.89
1033.83
1026.27
1024.38
1028.16
1013.04
994.14
984.69
940.28
906.26
894.92
874.13
871.29
863.73
853.34
835.38
843.89
838.22
840.11
851.45
866.57
886.41
907.2
916.65
920.43
937.44
940.28
945.95
964.85
966.74
968.63
947.84
964.85
936.5
903.42
897.75
896.81
882.63
871.29
873.18
865.62
877.91
881.69
899.64
913.82
947.84
1004.54
1037.61
1065.96
1089.59
1093.37
1083.92
1114.16
1111.32
1092.42
1061.24
1006.43
963.9
966.74
924.21
922.32
895.86
866.57
871.29
876.02
874.13
866.57
874.13
906.26
970.52
1020.6
1054.62
1091.48
1108.49
1121.72
1151.96
1147.23
1103.76
1073.52
1048.95
989.42
962.01
937.44
894.92
869.4
849.56
831.6
832.55
828.77
822.15
835.38
870.35
893.97
933.66
983.75
1000.76
1029.11
1034.78
1030.05
1020.6
1018.71
1017.77
1031
1008.32
968.63
922.32
894.92
881.69
876.96
875.07
854.28
838.22
839.16
831.6
842.94
855.23
897.75
938.39
981.86
1005.48
1022.49
1030.05
1046.12
1028.16
1008.32
1005.48
994.14
947.84
920.43
895.86
879.8
874.13
858.06
850.5
839.16
836.33
826.88
831.6
843.89
876.02
906.26
946.89
983.75
1012.1
1038.56
1035.72
1025.33
1015.88
1028.16
1020.6
987.53
953.51
910.04
910.04
896.81
880.74
876.96
859.01
842.94
789.08
842.94
853.34
849.56
872.24
882.63
898.7
914.76
910.98
910.98
918.54
924.21
936.5
945.95
925.16
919.49
919.49
888.3
883.58
873.18
868.46
861.84
857.12
850.5
851.45
848.61
846.72
847.67
861.84
876.02
900.59
893.97
895.86
892.08
903.42
922.32
916.65
911.93
911.93
910.98
917.6
895.86
903.42
894.92
891.14
893.97
890.19
878.85
889.25
878.85
888.3
888.3
908.15
941.22
973.35
1034.78
1063.13
1083.92
1105.65
1096.2
1089.59
1092.42
1083.92
1096.2
1074.47
1053.68
1017.77
994.14
959.18
948.78
956.34
941.22
951.62
940.28
939.33
951.62
991.31
1012.1
1033.83
1079.19
1100.93
1090.53
1103.76
1114.16
1106.6
1108.49
1089.59
1072.58
1054.62
1011.15
971.46
957.29
941.22
939.33
931.77
905.31
914.76
927.05
914.76
920.43
936.5
970.52
1003.59
1065.02
1082.97
1079.19
1081.08
1082.97
1079.19
1069.74
1057.46
1050.84
1009.26
982.8
952.56
932.72
926.1
923.27
898.7
880.74
872.24
878.85
875.07
891.14
893.03
927.99
964.85
1004.54
1017.77
1034.78
1042.34
1036.67
1046.12
1057.46
1028.16
1019.66
999.81
967.68
921.38
912.87
911.93
910.04
910.98
896.81
886.41
885.47
883.58
892.08
908.15
936.5
960.12
1004.54
1003.59
1030.05
1037.61
1048.01
1053.68
1044.23
1039.5
1006.43
985.64
947.84
940.28
900.59
907.2
897.75
893.97
893.03
882.63
875.07
875.07
881.69
890.19
895.86
916.65
945
928.94
935.55
944.06
951.62
942.17
934.61
935.55
927.05
924.21
907.2
908.15
912.87
894.92
890.19
890.19
871.29
855.23
865.62
863.73
866.57
879.8
900.59
931.77
917.6
921.38
921.38
958.23
975.24
957.29
928.94
923.27
914.76
923.27
908.15
904.37
893.03
879.8
872.24
867.51
859.01
861.84
851.45
849.56
859.01
878.85
907.2
960.12
1013.99
1049.9
1082.97
1096.2
1093.37
1091.48
1084.86
1059.35
1039.5
1001.7
974.3
953.51
914.76
903.42
919.49
906.26
887.36
869.4
871.29
862.79
869.4
885.47
917.6
979.02
1028.16
1031
1050.84
1074.47
1072.58
1072.58
1061.24
1043.28
1027.22
988.47
989.42
971.46
970.52
933.66
925.16
931.77
903.42
891.14
874.13
872.24
883.58
902.48
919.49
966.74
1013.04
1032.89
1055.57
1072.58
1072.58
1057.46
1076.36
1097.15
1082.97
1053.68
1031.94
1020.6
1004.54
957.29
938.39
907.2
880.74
882.63
894.92
890.19
878.85
906.26
924.21
971.46
1026.27
1048.01
1079.19
1113.21
1128.33
1119.83
1136.84
1116.99
1091.48
1057.46
996.03
995.09
970.52
952.56
935.55
918.54
889.25
877.91
885.47
894.92
918.54
947.84
963.9
1021.55
1098.09
1130.22
1138.73
1175.58
1164.24
1141.56
1151.01
1150.07
1131.17
1100.93
1059.35
1052.73
1029.11
1007.37
982.8
980.91
963.9
941.22
932.72
920.43
914.76
922.32
922.32
959.18
978.08
985.64
1012.1
1030.05
1035.72
1033.83
1033.83
1022.49
1009.26
994.14
943.11
945.95
933.66
926.1
908.15
876.02
863.73
848.61
850.5
837.27
839.16
837.27
848.61
880.74
881.69
880.74
886.41
893.03
900.59
898.7
893.97
877.91
875.07
862.79
857.12
842
841.05
846.72
837.27
837.27
836.33
841.05
833.49
836.33
849.56
854.28
892.08
949.73
999.81
1012.1
1040.45
1056.51
1074.47
1065.96
1059.35
1039.5
1034.78
1013.99
980.91
943.11
913.82
907.2
902.48
912.87
893.97
889.25
888.3
886.41
877.91
899.64
937.44
987.53
1021.55
1049.9
1068.8
1074.47
1075.41
1090.53
1065.02
1068.8
1041.39
1023.44
978.08
950.67
935.55
921.38
913.82
905.31
882.63
883.58
885.47
865.62
864.68
885.47
921.38
886.41
979.97
1001.7
1018.71
1037.61
1044.23
1041.39
1038.56
1030.05
1004.54
970.52
919.49
906.26
898.7
893.97
897.75
879.8
865.62
863.73
859.95
869.4
864.68
893.03
943.11
984.69
1007.37
1037.61
1062.18
1092.42
1108.49
1082.97
1074.47
1085.81
1072.58
1036.67
1008.32
1012.1
955.4
913.82
897.75
883.58
860.9
867.51
860.9
860.9
865.62
875.07
911.93
959.18
1011.15
1023.44
1063.13
1089.59
1094.31
1086.75
1079.19
1073.52
1054.62
1034.78
1001.7
954.45
921.38
913.82
899.64
872.24
846.72
836.33
829.71
832.55
847.67
855.23
870.35
912.87
946.89
939.33
935.55
951.62
945
937.44
930.83
920.43
904.37
911.93
909.09
884.52
887.36
876.02
861.84
860.9
848.61
843.89
842.94
843.89
843.89
856.17
874.13
885.47
890.19
900.59
910.04
913.82
928.94
952.56
952.56
953.51
949.73
952.56
939.33
925.16
914.76
909.09
899.64
882.63
875.07
876.02
871.29
859.95
845.78
857.12
897.75
970.52
994.14
996.98
1177.47
1169.91
1187.87
1201.1
1190.7
1160.46
1134
1117.94
1060.29
1024.38
985.64
962.96
945.95
921.38
941.22
944.06
945.95
940.28
923.27
933.66
979.02
1045.17
1125.5
1138.73
1155.74
1164.24
1179.36
1183.14
1181.25
1186.92
1154.79
1118.88
1083.92
1065.96
1053.68
1029.11
1003.59
984.69
946.89
927.99
906.26
885.47
893.03
904.37
945
1016.82
1109.43
1168.02
1196.37
1220
1243.62
1234.17
1240.79
1222.83
1212.44
1181.25
1133.06
1132.11
1037.61
1087.7
1064.07
1045.17
1013.99
1008.32
1005.48
998.87
987.53
989.42
1020.6
1115.1
1207.71
1246.46
1270.08
1268.19
1278.59
1269.14
1275.75
1264.41
1247.4
1220.94
1198.26
1147.23
1132.11
1120.77
1104.71
1084.86
1065.02
1043.28
1055.57
1052.73
1052.73
1080.14
1110.38
1180.31
1242.68
1290.87
1315.44
1352.3
1370.25
1366.47
1364.58
1346.63
1323.95
1312.61
1271.97
1240.79
1231.34
1195.43
1168.97
1141.56
1116.99
1108.49
1082.97
1070.69
1082.03
1078.25
1091.48
1140.62
1162.35
1193.54
1217.16
1249.29
1279.53
1297.49
1291.82
1276.7
1269.14
1273.86
1244.57
1220
1193.54
1192.59
1186.92
1164.24
1127.39
1092.42
1070.69
1056.51
1045.17
1052.73
1054.62
1101.87
1135.89
1151.01
1163.3
1207.71
1222.83
1223.78
1229.45
1208.66
1220
1230.39
1235.12
1209.6
1196.37
1179.36
1168.02
1159.52
1134
1067.85
1040.45
1037.61
1045.17
1064.07
1075.41
1092.42
1117.94
1150.07
1174.64
1177.47
1217.16
1274.81
1263.47
1246.46
1242.68
1232.28
1207.71
1208.66
1210.55
1190.7
1188.81
1175.58
1157.63
1139.67
1153.85
1150.07
1151.01
1174.64
1192.59
1256.85
1313.55
1327.73
1331.51
1335.29
1343.79
1353.24
1360.8
1348.52
1299.38
1269.14
1253.07
1252.13
1224.72
1205.82
1189.76
1173.69
1152.9
985.6
984.9
977.34
979.23
977.55
996.24
1029.42
1074.57
1120.77
1134.21
1153.11
1139.04
1145.76
1128.54
1107.75
1101.03
1078.56
1031.1
1022.91
996.24
968.73
967.89
934.92
929.88
930.09
907.41
904.68
908.46
911.19
930.93
961.17
1015.14
1075.62
1085.07
1117.2
1137.15
1131.48
1109.43
1105.86
1092.63
1067.01
1057.77
1038.66
997.08
1019.13
978.39
967.89
946.05
916.86
888.51
892.29
859.32
862.26
891.45
932.82
1008.42
1052.1
1082.97
1112.37
1138.83
1155
1156.68
1162.56
1156.89
1140.93
1092.63
1058.61
987.84
971.67
931.14
918.75
911.19
897.96
897.96
897.12
884.73
891.24
913.92
949.83
1016.19
1082.34
1088.85
1100.19
1119.09
1132.32
1124.76
1110.69
1078.56
1045.59
1020.6
970.62
960.54
946.05
922.53
898.8
899.01
876.33
874.44
862.05
871.5
880.95
897.96
935.76
990.78
1056.93
1031.31
1079.19
1093.68
1115.31
1135.05
1147.65
1173.06
1161.72
1124.76
1075.62
1044.33
1035.93
1009.47
985.95
980.07
965.79
962.22
964.95
958.44
967.89
984.9
1002.12
1043.28
1106.91
1111.53
1113.63
1117.2
1119.09
1099.35
1077.51
1081.29
1063.44
1047.27
1024.38
966
934.92
924.42
927.15
946.05
920.64
889.35
871.5
852.6
845.04
871.5
881.79
915.81
933.87
967.05
1014.3
1036.77
1050.21
1054.83
1046.22
1050.21
1049.37
1054.83
1060.5
1037.82
1004.85
974.4
948.99
934.92
944.16
942.48
937.44
936.6
930.09
962.22
997.08
1061.55
1132.32
1164.45
1226.82
1283.52
1306.2
1340.22
1361.22
1370.46
1363.95
1362.06
1311.87
1266.72
1247.4
1191.75
1177.68
1153.32
1125.6
1121.19
1113.42
1110.48
1113.42
1163.61
1201.41
1267.56
1345.05
1379.07
1376.13
1412.88
1420.44
1418.76
1403.43
1398.81
1346.73
1300.53
1259.79
1235.22
1195.53
1173.9
1136.1
1119.09
1088.01
1070.79
1055.67
1029.42
1043.28
1033.2
1061.34
1153.11
1238.16
1273.02
1284.36
1306.2
1319.43
1341.06
1330.77
1341.27
1335.6
1292.97
1250.55
1237.32
1215.48
1188.18
1185.03
1146.6
1110.48
1104.18
1100.19
1105.02
1114.26
1140.93
1184.4
1251.39
1320.27
1349.88
1384.53
1455.51
1492.47
1485.96
1453.62
1478.19
1472.31
1430.73
1381.8
1356.18
1341.27
1307.25
1291.92
1276.17
1281.63
1258.11
1242.78
1229.55
1229.55
1250.34
1270.29
1328.88
1383.69
1412.04
1427.16
1430.1
1435.56
1455.51
1494.36
1516.83
1498.98
1445.01
1413.09
1394.19
1375.29
1345.89
1319.43
1301.37
1287.3
1283.52
1249.5
1225.98
1205.19
1206.03
1224.93
1261.68
1269.45
1245.72
1260.84
1278.9
1276.8
1284.57
1278.69
1269.24
1218.42
1210.65
1197.63
1189.86
1151.43
1129.59
1120.98
1122.87
1116.15
1105.86
1103.97
1097.46
1098.51
1103.97
1127.7
1164.45
1219.26
1219.26
1233.54
1231.65
1270.08
1294.86
1303.26
1308.09
1275.96
1263.78
1255.17
1226.82
1210.86
1210.65
1148.49
1158.78
1156.89
1146.6
1149.33
1158.78
1171.17
1210.65
1251.39
1326.99
1392.09
1416.87
1463.07
1492.47
1516.83
1518.93
1521.66
1507.38
1477.35
1369.62
1361.01
1279.53
1235.22
1190.91
1180.41
1137.15
1110.48
1109.64
1100.19
1126.65
1147.44
1167.18
1204.98
1277.01
1342.11
1362.9
1387.47
1421.49
1430.94
1450.68
1450.68
1468.74
1442.07
1374.24
1345.05
1315.65
1315.65
1274.07
1226.82
1193.85
1155
1118.25
1105.02
1098.3
1103.13
1128.75
1163.4
1175.79
1291.92
1311.03
1326.99
1343.16
1346.1
1349.67
1343.16
1338.33
1309.98
1237.32
1201.41
1158.78
1146.39
1138.83
1117.2
1111.53
1083.18
1086.96
1080.45
1073.52
1087.8
1108.8
1155.84
1190.91
1253.28
1271.34
1290.03
1306.2
1325.1
1300.53
1313.55
1302.42
1281.84
1234.38
1218.21
1184.4
1166.34
1149.12
1137.99
1125.81
1106.7
1092.63
1092.63
1092.63
1108.8
1125.81
1156.89
1253.28
1310.19
1345.89
1386.63
1413.09
1422.33
1414.77
1409.31
1395.24
1374.24
1310.82
1283.52
1253.07
1238.16
1220.1
1187.13
1158.78
1127.49
1112.58
1102.08
1088.85
1075.62
1079.4
1096.41
1122.87
1113.21
1118.04
1124.76
1133.16
1157.94
1157.94
1127.49
1120.98
1151.22
1171.8
1181.67
1178.73
1184.19
1176.84
1174.11
1164.66
1164.45
1157.73
1160.67
1192.8
1193.85
1198.47
1199.52
1241.1
1257.06
1243.83
1268.4
1288.14
1292.97
1273.23
1283.52
1286.25
1296.75
1311.87
1281.63
1269.24
1240.89
1230.6
1220.1
1215.48
1186.29
1175.79
1164.45
1162.56
1142.82
1158.78
1196.58
1264.62
1314.81
1342.11
1365.63
1383.69
1401.54
1410.99
1425.27
1409.31
1378.02
1349.88
1321.32
1295.7
1271.34
1243.83
1209.81
1192.8
1158.78
1150.38
1164.45
1166.34
1201.2
1244.67
1292.97
1374.24
1463.07
1505.49
1527.12
1548.96
1528.17
1554.63
1552.95
1550.22
1522.5
1479.87
1429.89
1415.82
1360.17
1264.62
1216.53
1199.52
1173.9
1143.45
1100.19
1078.56
1068.06
1090.74
1119.09
1204.14
1281.42
1301.37
1329.72
1359.12
1364.79
1336.44
1386.42
1349.67
1331.82
1286.46
1260
1225.98
1211.91
1159.83
1136.94
1109.43
1076.67
1051.05
1038.66
1025.64
1028.58
1039.71
1074.57
1153.32
1218.42
1247.4
1262.52
1297.8
1315.65
1319.43
1314.6
1293.81
1264.62
1236.27
1215.48
1183.56
1178.52
1155
1141.77
1108.8
1087.8
1078.56
1079.61
1073.73
1083.18
1105.86
1120.98
1194.69
1268.4
1279.74
1297.59
1334.76
1348.62
1336.44
1331.61
1315.65
1306.2
1274.07
1239
1214.64
1210.86
1182.3
1152.27
1128.75
1103.97
1101.24
1096.41
1093.68
1079.19
1094.73
1112.37
1146.39
1152.9
1164.24
1140.93
1131.27
1139.88
1136.1
1120.14
1091.58
1072.89
1053.15
1038.03
1065.12
1045.17
1030.26
1025.64
1021.65
1018.71
984.9
748.65
809.34
846.09
864.99
886.41
931.14
993.3
1052.94
1072.05
1078.35
1102.08
836.64
398.16
1074.78
1137.99
1137.15
1111.53
1116.36
1095.57
1088.85
1084.02
1062.39
1041.6
1003.8
988.68
972.72
980.28
1004.64
1027.53
1119.3
1170.12
1198.47
1193.85
1212.54
1228.71
1230.6
1227.66
1228.71
1216.32
1184.19
1163.61
1130.22
1113.63
1106.7
1082.13
1068.06
1040.76
1022.7
1018.92
1035.93
1056.72
1062.39
1105.65
1185.24
1271.13
1290.24
1311.87
1349.46
1362.69
1375.08
1385.58
1397.97
1345.05
1294.86
1315.65
1291.08
1274.28
1242.99
1239
1221.15
1199.52
1195.53
1176.63
1164.45
1161.51
1177.68
1200.36
1256.22
1303.26
1320.27
1328.04
1342.11
1360.8
1384.74
1369.41
1357.44
1341.06
1287.3
1256.22
1214.64
1187.13
1156.05
1127.7
1106.07
1084.02
1068.06
1053.99
1039.71
1050.21
1062.39
1100.19
1173.06
1233.33
1251.39
1274.91
1281.63
1323.21
1291.08
1287.51
1288.35
1273.02
1225.77
1188.18
1180.41
1160.88
1153.11
1126.86
1110.48
1085.07
1082.34
1067.85
1042.44
1032.36
1038.87
1055.88
1111.53
1135.26
1138.83
1142.82
1146.6
1161.51
1171.17
1179.57
1183.35
1175.79
1153.11
1192.8
1165.5
1138.83
1119.93
1104.81
1089.69
1073.73
1057.77
1060.29
1069.11
1078.35
1101.24
1117.2
1141.56
1144.71
1120.14
1133.37
1151.22
1146.39
1153.95
1164.24
1140.93
1109.64
1102.92
1124.76
1102.08
1089.69
1086.96
1084.02
1064.28
1057.77
1051.89
1052.94
1048.32
1045.59
1053.15
1074.57
1119.93
1132.32
1140.72
1150.17
1174.74
1190.91
1207.92
1216.53
1191.96
1192.8
1186.29
1174.74
1161.72
1155
1164.45
1144.5
1157.94
1135.26
1119.09
1095.57
1088.01
1094.52
1122.87
1174.95
1248.45
1269.45
1380.75
1400.7
1426.32
1392.09
1439.34
1427.16
1410.15
1369.41
1296.75
1273.02
1234.38
1222.2
1223.88
1210.65
1204.14
1190.91
1195.74
1190.91
1188.81
1214.64
1241.94
1287.3
1356.18
1423.38
1444.17
1453.62
1488.69
1494.15
1491.63
1481.97
1492.26
1442.28
1395.03
1361.85
1329.72
1303.47
1281.63
1269.45
1248.66
1220.1
1197.63
1186.08
1178.52
1190.7
1226.82
1269.45
1340.01
1417.71
1442.49
1460.13
1476.3
1492.47
1500.87
1493.52
1486.8
1443.12
1384.74
1360.8
1338.54
1344
1303.47
1275.96
1254.12
1216.32
1187.97
1168.23
1168.23
1181.67
1182.3
1209.81
1260.84
1325.1
1324.26
1319.43
1346.73
1361.85
1382.64
1392.3
1393.14
1382.64
1335.39
1291.08
1246.56
1241.1
1228.71
1217.37
1216.32
1193.85
1200.36
1191.75
1188.18
1172.85
1196.58
1222.2
1270.29
1318.59
1315.65
1321.11
1341.27
1344.84
1349.67
1302.42
1333.71
1305.36
1254.33
1241.1
1195.74
1179.57
1143.66
1124.55
1111.32
1095.36
1083.39
1083.39
1075.62
1057.56
1054.83
1074.57
1108.8
1144.5
1158.78
1175.58
1191.12
1207.92
1213.8
1211.7
1209.81
1194.69
1218.21
1197.42
1200.15
1199.31
1189.02
1175.79
1178.52
1158.78
1143.66
1149.33
1140.72
1125.6
1107.75
1117.41
1153.11
1173.06
1184.19
1200.36
1230.6
1243.83
1241.1
1255.17
1242.78
1241.94
1179.78
1204.14
1197.63
1183.35
1191.75
1158.99
1139.88
1122.87
1114.47
1102.08
1118.25
1119.93
1144.5
1176.63
1229.55
1295.7
1342.11
1298.85
1309.98
1314.81
1317.54
1380.75
1402.59
1348.83
1264.83
1245.72
1208.13
1223.04
1205.19
1186.29
1162.77
1148.28
1152.06
1153.95
1145.34
1155.84
1191.96
1229.55
1296.75
1309.77
1294.86
1384.74
1425.27
1434.93
1426.32
1422.33
1401.54
1409.31
1344
1323.21
1315.65
1315.44
1299.48
1278.69
1255.17
1232.49
1217.37
1208.97
1201.41
1193.85
1221.15
1257.06
1287.3
1346.73
1398.81
1413.09
1415.82
1423.38
1405.32
1418.76
1390.41
1378.02
1315.65
1265.67
1232.7
1204.14
1171.17
1141.98
1118.04
1081.29
1041.6
1027.32
1016.82
1006.53
1006.53
1058.61
1120.14
1162.56
1212.75
1221.15
1257.9
1265.67
1265.67
1257.9
1266.72
1252.23
1202.46
1168.23
1146.39
1141.77
1108.8
1077.51
1058.61
1029.21
1019.97
1006.74
993.3
998.13
1036.98
1078.35
1153.11
1233.33
1264.41
1287.3
1325.31
1313.76
1308.09
1296.54
1289.19
1279.74
1229.55
1210.65
1169.07
1163.61
1137.15
1133.16
1116.15
1105.65
1104.81
1099.98
1098.3
1098.3
1117.2
1125.81
1176.63
1206.24
1197.63
1214.64
1264.62
1268.4
1275.96
1297.59
1324.05
1316.7
1328.04
1291.08
1284.36
1266.72
1265.46
1256.01
1231.65
1208.97
1196.58
1191.75
1185.24
1176.84
1186.29
1189.02
1223.25
1253.49
1271.34
1309.98
1345.89
1359.12
1353.45
1378.86
1375.08
1358.28
1374.24
1339.38
1340.01
1323.21
1313.76
1301.58
1291.08
1282.47
1278.9
1274.07
1265.46
1268.61
1283.52
1316.49
1359.12
1405.53
1424.43
1449
1493.31
1498.98
1497.93
1504.86
1512.21
1485.54
1436.4
1415.82
1379.91
1347.78
1331.61
1299.48
1273.02
1243.83
1231.44
1215.69
1213.59
1210.86
1223.25
1260.84
1319.43
1391.25
1413.72
1404.48
1413.93
1414.77
1401.54
1407.42
1416.66
1409.31
1347.78
1324.05
1308.93
1243.83
1196.58
1180.41
1161.51
1119.93
1094.52
1095.36
1077.3
1072.68
1088.85
1101.24
1170.12
1244.67
1280.58
1283.52
1313.55
1333.71
1334.55
1330.98
1346.73
1331.61
1271.13
1207.92
1204.14
1151.22
1145.55
1104.81
1083.18
1058.61
1046.43
1037.61
1018.08
1018.92
1034.88
1073.73
1139.88
1233.33
1261.68
1275.12
1307.25
1291.08
1300.53
1298.64
1304.31
1286.46
1232.49
1196.58
1182.3
1141.77
1110.69
1086.12
1057.77
1026.48
1015.14
1013.25
1015.14
1025.43
1054.83
1090.74
1161.72
1230.6
1257.06
1266.51
1293.81
1300.53
1299.69
1293.81
1286.25
1264.62
1208.13
1180.62
1168.23
1161.72
1132.32
1114.47
1084.23
1054.62
1041.6
1031.31
1023.54
1005.69
1016.19
1031.31
1092.63
1133.16
1143.66
1167.39
1201.41
1197.63
1220.94
1224.93
1208.76
1199.52
1192.8
1178.73
1176.63
1161.72
1135.89
1132.32
1126.65
1117.2
1101.24
1086.96
1071.84
1071
1079.61
1097.25
1123.92
1140.93
1176.84
1217.37
1243.83
1277.85
1275.96
1266.3
1275.96
1264.62
1260.84
1249.5
1242.78
1211.7
1192.8
1166.34
1141.77
1135.26
1126.65
1118.04
1115.31
1130.64
1159.62
1187.13
1264.62
1315.44
1363.95
1397.97
1419.6
1413.09
1387.47
1435.56
1428
1386.63
1342.95
1322.16
1316.7
1279.74
1248.66
1246.77
1237.32
1212.75
1194.69
1183.35
1189.02
1204.14
1211.7
1253.28
1319.43
1406.16
1460.13
1465.17
1464.12
1473.36
1463.91
1456.35
1460.34
1424.22
1365
1329.72
1373.19
1354.5
1329.72
1313.76
1278.9
1236.48
1210.86
1201.2
1190.91
1187.13
1218.42
1248.45
1307.04
1369.41
1410.99
1444.17
1460.13
1473.36
1457.19
1449.84
1442.28
1419.6
1362.06
1346.73
1309.14
1326.99
1318.38
1296.75
1277.85
1246.77
1226.61
1218.42
1210.86
1218.21
1224.09
1266.51
1325.94
1396.92
1447.11
1463.07
1497.09
1503.81
1510.32
1535.73
1523.55
1434.93
1386.42
1350.72
1317.75
1299.69
1277.01
1258.74
1240.89
1218.21
1197.63
1169.28
1148.28
1131.27
1137.99
1158.78
1221.15
1291.08
1311.03
1340.01
1372.35
1366.89
1351.56
1352.61
1346.73
1314.81
1251.39
1229.76
1206.87
1189.02
1165.5
1136.31
1119.3
1091.79
1076.46
1066.17
1057.56
1059.66
1072.89
1078.56
1131.27
1177.68
1186.08
1197.42
1210.86
1234.17
1218.42
1209.81
1202.46
1195.74
1185.45
1168.23
1159.83
1131.27
1130.43
1121.82
1097.25
1078.35
1059.45
1048.95
1055.67
1041.6
1051.05
1055.88
1099.35
1108.8
1135.05
1156.89
1172.01
1180.41
1185.24
1180.62
1183.35
1178.52
1176.84
1158.78
1161.51
1136.1
1123.92
1096.41
1084.02
1064.28
1060.5
1069.95
1065.12
1073.94
1105.02
1135.26
1221.15
1296.75
1347.78
1378.86
1412.88
1415.61
1392.09
1400.7
1393.98
1366.68
1308.93
1267.56
1235.43
1215.27
1190.91
1146.39
1133.37
1122.66
1102.08
1115.31
1134.21
1110.69
1139.88
1200.36
1258.11
1331.61
1204.14
1396.92
1431.78
1460.34
1436.61
1426.32
1395.87
1373.19
1318.59
1253.28
1235.22
1229.55
1188.18
1147.44
1129.38
1086.75
1062.18
1043.49
1040.55
1053.78
1082.97
1114.26
1173.9
1259.79
1304.31
1324.05
1344.84
1352.61
1350.72
1356.18
1357.02
1319.43
1266.51
1210.02
1200.36
1154.16
1110.69
1086.75
1081.29
1061.34
1051.89
1028.37
1022.7
1022.7
1050.84
1078.35
1136.31
1228.92
1241.1
1246.56
1277.85
1292.13
1287.09
1281.63
1282.68
1262.73
1224.09
1158.57
1139.67
1155.84
1123.71
1108.8
1085.91
1068.06
1045.38
1031.1
1026.48
1038.66
1063.23
1092.63
1150.38
1221.15
1252.23
1258.95
1280.58
1298.43
1287.3
1298.64
1292.13
1265.67
1213.59
1198.68
1153.95
1139.04
1115.31
1092.63
1082.13
1059.45
1039.71
1026.69
1024.59
1015.35
1017.87
1042.65
1101.03
1165.29
1172.01
1158.99
1172.01
1186.29
1192.59
1171.17
1181.46
1153.95
1148.49
1117.2
1109.43
1105.86
1102.08
1093.47
1091.79
1073.73
1054.83
1044.54
1041.6
1040.55
1053.99
1060.5
1088.85
1126.86
1150.38
1150.38
1167.39
1181.46
1172.01
1163.4
1156.05
1145.55
1140.93
1124.76
1118.04
1111.53
1118.25
1110.48
1116.36
1086.12
1076.67
1067.22
1063.44
1066.17
1077.51
1120.98
1194.9
1259.79
1290.24
1307.88
1308.93
1305.36
1311.03
1303.47
1302.42
1262.73
1221.99
1177.68
1145.55
1157.73
1134
1115.31
1101.24
1088.85
1092.63
1088.01
1080.45
1101.24
1152.9
1214.43
1258.95
1315.65
1319.22
1328.88
1352.61
1378.86
1391.04
1393.98
1408.26
1390.41
1297.8
1268.4
1244.67
1225.98
1213.59
1191.75
1167.18
1130.43
1086.75
1070.79
1054.83
1048.95
1068.06
1106.91
1172.01
1241.94
1256.01
1268.61
1297.59
1314.81
1304.1
1295.7
1283.52
1277.01
1219.26
1175.79
1156.89
1132.32
1130.43
1098.3
1085.07
1059.66
1035.93
1019.76
1013.25
1021.86
1035.09
1071.84
1136.94
1196.58
1233.54
1278.69
1297.8
1278.9
1276.8
1282.68
1285.41
1246.77
1192.59
1152.27
1147.44
1106.7
1081.29
1070.79
1058.61
1030.26
1014.09
1002.96
996.24
996.24
1015.14
1048.11
1117.2
1194.69
1246.77
1267.35
1293.81
1323.21
1322.37
1317.54
1326.15
1300.74
1258.95
1226.61
1206.03
1184.4
1169.07
1135.05
1120.14
1086.96
1079.61
1063.44
1059.45
1055.88
1064.28
1094.52
1137.99
1187.13
1195.53
1224.09
1254.12
1277.01
1280.79
1287.3
1276.8
1275.96
1258.95
1238.16
1227.87
1231.44
1195.74
1168.23
1162.77
1134
1125.6
1111.74
1099.14
1089.9
1091.79
1105.02
1134.21
1163.61
1183.35
1226.82
1273.02
1304.31
1311.87
1292.97
1291.08
1287.51
1282.68
1275.12
1256.01
1239.84
1232.49
1218.21
1198.47
1176.84
1150.17
1143.66
1124.76
1118.25
1136.1
1178.73
1247.4
1313.76
1360.8
1410.15
1480.92
1481.97
1472.31
1445.01
1441.44
1421.49
1370.46
1359.12
1307.04
1286.25
1264.41
1248.45
1228.92
1220.94
1199.52
1187.97
1177.68
1218.42
1210.86
1254.96
1302.42
1402.8
1433.67
1447.95
1506.54
1491.42
1474.41
1483.02
1489.53
1473.57
1418.76
1373.19
1324.89
1313.76
1306.2
1299.48
1284.57
1261.89
1242.78
1221.15
1207.92
1217.37
1246.77
1110.48
1130.43
1430.94
1451.94
1450.68
1469.79
1492.47
1269.45
1507.59
1470.63
1430.94
1378.86
1341.06
1300.32
1276.8
1273.86
1263.78
1253.28
1231.65
1225.77
1221.36
1221.15
1236.06
1264.62
1284.36
1341.27
1418.76
1442.28
1467.69
1492.47
1507.38
1498.98
1484.91
1449
1420.65
1374.24
1328.04
1293.81
1280.58
1276.17
1272.18
1267.35
1244.88
1233.33
1225.98
1192.8
1196.37
1217.58
1242.78
1262.73
1305.99
1325.1
1328.88
1362.06
1359.96
1374.45
1369.41
1371.3
1355.55
1296.75
1241.94
1225.14
1200.36
1174.95
1136.1
1123.71
1084.02
1071.84
1064.49
1062.18
1057.56
1054.83
1066.17
1094.52
1110.48
1136.31
1137.99
1164.45
1189.02
1201.2
1202.04
1190.07
1167.18
1171.17
1159.83
1157.73
1130.43
1099.14
1080.45
1056.72
1041.81
1036.14
1034.25
1039.71
1029.42
1037.82
1051.26
1076.67
1126.44
1162.35
1182.51
1201.2
1213.59
1209.81
1221.15
1248.66
1240.05
1226.82
1202.25
1214.64
1198.68
1174.95
1169.91
1151.01
1134.21
1116.15
1113.42
1101.24
1108.8
1133.37
1180.41
1233.33
1315.44
1336.65
1332.66
1362.9
1392.09
1406.37
1403.43
1392.93
1367.73
1310.82
1265.46
1250.55
1229.76
1215.48
1198.47
1180.41
1152.06
1135.26
1148.49
1157.94
1176.63
1221.99
1254.33
1296.96
1385.79
1417.71
1422.54
1417.71
1430.94
1427.16
1443.33
1418.76
1370.46
1338.33
1290.24
1246.77
1211.49
1176.84
1143.66
1120.14
1069.11
1026.27
1024.8
1019.76
1029.21
1054.83
1085.91
1134
1218.21
1237.11
1272.18
1301.37
1311.87
1296.75
1300.32
1292.13
1272.18
1227.66
1179.36
1153.11
1141.77
1117.2
1113.42
1091.79
1062.39
1048.11
1027.53
1024.59
1023.54
1036.98
1069.95
1117.2
1198.47
1256.01
1271.97
1290.03
1313.76
1322.37
1285.2
1287.09
1253.28
1191.75
1148.28
1144.71
1126.86
1089.69
1074.57
1058.61
1031.1
1017.87
990.57
990.57
994.56
1025.64
1068.27
1114.26
1202.25
1221.15
1246.56
1268.19
1274.91
1266.51
1282.68
1262.73
1238.16
1193.85
1175.58
1145.34
1123.71
1088.01
1065.33
1042.44
1023.54
1013.46
994.35
992.46
984.06
982.17
994.35
1042.44
1121.82
1135.05
1155
1173.9
1183.35
1209.81
1205.19
1206.03
1198.47
1197.42
1188.81
1163.4
1137.99
1128.54
1122.03
1103.13
1081.5
1076.67
1071.84
962.01
1051.89
1068.06
1075.83
1113.42
1145.55
1168.23
1218.42
1260.84
1285.41
1299.69
1302.42
1283.31
1273.86
1275.96
1266.72
1245.93
1229.55
1236.27
1228.92
1221.99
1201.41
1176.63
1164.66
1160.67
1167.18
1203.3
1241.94
1300.53
1366.47
1420.65
1428
1461.18
1466.85
1468.74
1486.8
1464.12
1441.44
1405.53
1358.07
1326.15
1303.26
1294.86
1296.75
1281.42
1271.97
1268.61
1260
1253.28
1252.23
1262.73
1314.6
1349.88
1417.5
1430.94
1445.22
1458.24
1444.38
1438.5
1457.4
1451.73
1428
1363.74
1307.25
1292.97
1269.24
1244.88
1239.21
1205.19
1180.41
1161.51
1140.72
1111.53
1122.87
1150.17
1187.13
1259.79
1358.07
1396.92
1434.72
1475.46
1447.95
1461.18
1451.73
1456.35
1419.6
1389.15
1365.84
1309.98
1294.86
1286.46
1267.35
1249.5
1226.82
1206.87
1196.58
1170.12
1165.29
1183.14
1211.7
1258.11
1356.39
1398.81
1377.18
1429.26
1433.67
1444.17
1452.57
1440.39
1401.54
1381.8
1325.94
1287.3
1271.34
1259.79
1239.21
1221.15
1202.25
1188.81
1162.56
1160.67
1172.01
1189.02
1240.89
1290.24
1369.41
1380.96
1423.59
1425.27
1409.31
1407.21
1385.58
1375.08
1348.62
1305.15
1249.5
1203.93
1180.62
1164.45
1145.55
1136.1
1113.63
1097.46
1089.69
1071.63
1061.34
1068.06
1080.24
1105.86
1131.27
1149.33
1152.9
1144.5
1157.94
1172.85
1178.52
1170.12
1162.35
1147.65
1148.49
1129.38
1109.64
1096.41
1068.06
1051.89
1036.98
1012.2
1014.09
1004.01
992.25
988.68
1009.47
1038.66
1094.52
1123.71
1139.04
1152.06
1170.12
1172.01
1172.22
1174.95
1170.12
1157.94
1138.83
1122.87
1088.85
1076.67
1071
1057.56
1036.98
1023.54
1021.02
1019.76
1042.44
1058.61
1106.91
1148.28
1186.08
1211.7
1209.6
1221.15
1224.93
1253.49
1266.51
1282.68
1282.47
1266.51
1234.38
1218.42
1199.52
1191.96
1171.17
1147.44
1136.94
1134
1134.21
1131.48
1145.55
1176.63
1211.91
1271.13
1345.89
1399.86
1406.37
1454.46
1480.92
1470.84
1479.24
1478.19
1453.83
1416.87
1369.62
1324.26
1312.71
1290.03
1270.29
1245.51
1215.48
1173.06
1173.9
1153.11
1146.6
1182.3
1250.55
1285.2
1362.06
1408.26
1449
1480.08
1513.26
1498.14
1494.36
1449.84
1426.11
1364.79
1242.78
1178.52
1198.47
1161.72
1146.6
1149.33
1126.65
1111.53
1068.9
1034.88
1044.54
1088.85
1136.1
1280.79
1318.59
1363.74
1369.62
1385.58
1386.63
1371.3
1346.1
1347.78
1335.6
1286.46
1235.43
1212.75
1185.24
1148.49
1132.32
1110.69
1089.06
1066.38
1051.05
1040.76
1054.83
1069.11
1105.86
1142.61
1191.75
1220.1
1224.93
1265.46
1282.68
1303.26
1289.19
1292.13
1277.64
1241.94
1114.26
1084.86
1059.66
1026.48
1009.47
971.67
961.38
1040.76
1045.38
1045.38
1048.32
1058.61
1071
1097.25
1142.82
1184.4
1190.07
1185.24
1197.42
1204.14
1184.19
1162.56
1156.68
1150.17
1152.27
1162.56
1141.77
1119.09
1119.09
1131.48
1117.2
1114.26
1121.82
1115.31
1106.91
1097.25
1097.25
1096.41
1096.41
1106.7
1110.69
1101.03
1109.43
1107.96
1093.68
1076.46
1069.95
1059.66
1044.54
1035.09
1020.81
1000.02
980.28
948.99
922.53
913.92
897.12
889.56
902.79
926.1
974.4
1029.42
1095.57
1132.32
1161.72
1192.8
1204.14
1194.9
1216.53
1196.58
1177.89
1140.93
1072.05
1038.87
1007.58
989.52
987.63
1000.02
957.6
947.94
960.54
953.61
942.27
966
1013.25
1062.39
1169.28
1208.97
1243.62
1272.18
1290.24
1291.08
1300.53
1291.08
1268.61
1218.21
1166.34
1145.55
1113.63
1091.58
1084.02
1048.32
1020.81
1012.41
1017.87
981.96
967.89
995.4
1039.71
1029.21
1166.34
1218.21
1273.86
1298.64
1323.21
1311.87
1311.03
1321.32
1299.48
1265.67
1217.37
1170.12
1142.61
1104.18
1088.85
1080.45
1037.82
1013.25
1022.7
1010.31
1004.64
1024.59
1048.11
1101.03
1192.8
1260
1284.57
1341.06
1341.27
1332.66
1331.82
1338.12
1309.14
1270.29
1225.77
1167.39
1149.33
1114.26
1085.91
1089.69
1077.51
1054.83
1040.76
1045.38
1041.6
1077.3
1097.46
1144.71
1255.17
1309.77
1354.29
1384.74
1412.04
1409.1
1412.04
1406.37
1383.9
1340.22
1254.33
1207.92
1172.85
1161.72
1159.62
1156.89
1139.04
1119.09
1094.52
1071.84
1069.95
1078.56
1086.96
1110.48
1173.9
1224.93
1262.73
1277.01
1289.19
1308.09
1307.04
1274.07
1289.19
1344
1329.72
1341.27
1317.33
1296.75
1257.06
1238.16
1218.42
1210.65
1205.19
1197.63
1204.35
1203.3
1140.93
1102.08
1105.02
1106.91
1089.9
1102.08
1131.27
1147.44
1155
1155
1147.23
1134
1088.01
1044.54
1045.38
1022.7
1004.64
979.23
967.89
953.82
952.77
933.87
939.54
974.61
1002.75
1052.94
1102.08
1161.51
1186.29
1222.2
1245.72
1237.11
1240.89
1225.98
1202.25
1149.33
1106.7
1090.74
1072.05
1050.21
1030.26
1020.81
974.4
965.16
985.74
982.17
1011.36
1014.09
1042.44
1083.39
1160.67
1199.31
1218.21
1242.99
1283.52
1265.67
1257.9
1272.18
1253.07
1230.39
1171.17
1149.33
1124.76
1119.09
1099.14
1052.1
1023.75
1014.3
1011.36
996.24
983.85
992.46
1018.08
1051.05
1122.03
1151.22
1186.29
1230.6
1250.55
1255.17
1265.67
1270.08
1244.67
1203.3
1130.43
1093.68
1078.35
1076.46
1034.88
1002.96
961.17
937.65
931.98
931.98
933.87
954.66
994.14
1022.7
1115.31
1195.53
1244.67
1294.02
1327.83
1313.76
1308.09
1290.24
1288.35
1244.67
1201.41
1157.94
1139.88
1129.38
1105.86
1084.02
1077.51
1082.13
1057.77
1035.09
1039.5
1060.71
1096.2
1124.76
1176.84
1199.52
1238.16
1275.12
1270.29
1276.8
1283.52
1289.19
1257.9
1192.8
1154.16
1134.21
1127.7
1088.01
1050.84
1020.6
942.48
827.19
987
995.19
978.18
987.84
1014.3
1036.98
1079.61
1089.69
1084.02
1098.3
1110.48
1113.63
1114.26
1101.24
1090.74
1101.24
1057.77
988.68
941.43
936.81
930.09
917.91
913.92
903.63
897.12
902.79
897.12
904.47
929.25
933.03
936.81
951.72
955.5
964.11
984.06
1000.02
1021.65
1020.81
1011.15
1014.09
1010.31
1028.16
1018.92
990.57
990.57
990.57
986.79
973.56
970.62
968.94
981.12
1019.97
1056.72
1111.32
1165.5
1186.29
1201.41
1257.06
1283.52
1278.9
1291.92
1293.81
1282.47
1234.38
1161.51
1136.1
1143.66
1160.67
1143.66
1125.81
1109.64
1079.4
1069.74
1073.73
1102.92
1122.03
1177.47
1229.55
1396.92
1510.32
1538.67
1551.06
1545.39
1534.68
1529.22
1498.98
1486.8
1442.07
1405.32
1404.48
1382.64
1362.9
1350.72
1333.71
1314.81
1308.09
1308.09
1286.25
1307.25
1332.87
1369.41
1414.77
1477.35
1505.49
1517.04
1515.99
1508.43
1493.31
1426.11
1383.69
1334.55
1254.33
1206.87
1166.34
1136.31
1077.51
1035.93
1015.35
986.79
954.66
944.16
936.81
946.26
957.39
989.52
1035.93
1084.23
1109.85
1116.15
1132.32
1141.98
1137.15
1146.6
1137.78
1129.38
1095.36
1023.75
994.35
976.5
964.11
950.88
938.49
917.07
908.46
905.52
905.52
911.4
936.6
965.16
1018.92
1065.33
1074.78
1097.46
1106.7
1097.46
1100.19
1086.96
1068.06
1048.32
992.67
953.82
946.89
952.77
933.87
921.48
920.43
902.58
894.18
890.4
895.02
897.12
900.69
929.04
958.44
959.49
967.89
974.4
964.11
980.28
987.84
982.17
970.62
959.28
943.11
935.76
946.26
962.01
948.15
941.43
941.43
929.25
922.53
930.3
933.87
925.47
940.38
951.93
966
970.83
958.44
958.65
960.33
970.62
976.29
972.72
957.39
957.39
954.66
952.98
958.44
958.65
931.14
921.69
912.03
892.29
875.28
879.06
882.63
900.69
933.87
970.62
1036.77
1056.72
1074.57
1098.3
1032.99
1169.07
1172.01
1140.09
1125.6
1126.65
1083.18
1025.64
988.47
979.23
958.44
930.09
921.69
905.52
925.26
933.87
929.04
940.38
968.94
995.19
1047.27
1097.25
1111.53
1142.82
1180.62
1191.75
1187.97
1181.46
1202.25
1187.13
1154.16
1111.53
1069.11
1050
1032.15
1017.03
997.08
966
950.04
925.47
902.79
917.7
950.04
973.56
1035.93
1093.47
1119.93
1135.05
1158.78
1164.45
1172.01
1188.18
1196.58
1183.35
1140.72
1055.67
1027.32
1002.75
995.4
959.28
949.83
934.92
901.74
903.63
888.51
905.52
924.42
976.5
1023.75
1079.4
1132.32
1140.93
1151.01
1159.62
1172.01
1159.83
1163.4
1161.72
1081.29
1035.93
1048.11
1019.97
1001.07
977.34
954.45
923.58
916.02
929.25
956.55
962.22
991.41
1034.04
1088.01
1144.5
1153.11
1187.13
1242.99
1256.22
1257.9
1278.9
1274.07
1255.17
1196.37
1125.81
1112.58
1069.95
1051.26
1040.55
935.76
896.91
891.45
896.91
891.24
897.12
910.98
891.45
884.73
894.18
894.39
904.47
917.91
921.48
928.2
930.09
882
959.49
929.25
895.23
882.84
874.23
855.54
867.72
842.31
834.54
833.7
837.48
829.71
837.69
846.09
843.99
853.44
860.16
892.29
913.92
937.44
954.66
969.57
967.05
977.34
978.18
974.61
959.49
923.58
908.25
895.23
884.73
863.94
845.88
841.26
831.6
834.54
843.99
880.95
910.35
971.46
1013.25
1059.45
1115.31
1153.11
1186.08
1179.57
1179.57
1173.9
1156.05
1119.09
1071.84
1023.75
1003.8
980.07
963.27
952.98
947.1
932.82
932.82
939.54
945
965.16
1017.87
1060.5
1135.26
1186.29
1225.98
1254.96
1245.72
1233.33
1237.32
1240.05
1213.59
1176.84
1137.15
1121.82
1064.28
1024.59
1006.53
1007.58
982.17
955.71
919.8
912.03
910.35
932.82
963.06
990.57
1047.27
1076.46
1114.47
1139.88
1161.51
1152.27
1134.21
1106.91
1097.46
1045.38
992.46
961.38
945.21
949.2
925.47
919.59
877.38
850.92
849.87
845.04
861
885.78
924.42
970.62
1020.6
1031.1
1051.89
1075.62
1109.64
1104.81
1103.13
1090.74
1073.73
1040.76
977.34
959.49
934.71
897.12
882.63
865.83
846.93
843.15
835.59
839.58
852.6
883.89
917.91
961.38
1030.26
1048.32
1081.29
1101.03
1122.03
1109.64
1089.9
1082.34
1063.23
1016.19
976.29
948.99
934.71
899.85
874.44
863.1
849.87
854.49
844.83
845.04
852.81
860.16
887.67
912.03
922.32
913.08
917.91
923.58
932.82
931.77
945.21
932.82
921.48
912.24
905.52
916.86
910.35
896.91
894.18
890.19
886.62
882.84
884.52
888.3
893.13
846.93
846.09
843.36
834.54
850.71
855.33
855.33
871.5
880.95
870.66
861.21
862.89
860.16
841.26
840.21
844.83
833.7
833.7
828.03
816.48
814.8
817.74
846.09
872.55
893.13
920.64
923.58
1015.14
1029.21
1044.33
1021.86
1023.54
1089.9
1057.56
1043.49
1034.04
994.35
970.83
941.43
937.65
932.19
900.69
894.39
885.57
913.92
919.59
916.86
922.53
953.82
987.63
1018.08
1071.84
1090.74
1100.19
1099.14
1152.06
1160.46
1157.73
1152.06
1144.71
1103.97
985.95
960.33
943.32
935.97
932.82
903.63
883.68
847.14
842.94
843.99
859.11
951.93
952.77
962.22
1035.93
1072.89
1106.91
1134.21
1170.96
1185.24
1175.79
1176.63
1152.06
1104.81
1028.37
1003.8
967.89
947.94
929.04
911.4
883.05
873.18
872.34
861.21
866.67
888.51
930.09
984.9
1029.21
1052.1
1083.18
1137.15
1168.23
1173.9
1156.05
1122.87
1121.82
1080.24
1039.71
1032.15
994.35
984.9
967.89
936.81
913.92
913.08
895.02
874.23
884.73
903.63
908.25
976.5
1011.36
1021.86
1038.66
1069.95
1074.78
1070.79
1052.94
1058.61
1017.03
962.43
931.98
927.36
898.8
889.56
871.5
862.05
864.99
871.29
866.67
871.5
873.18
876.33
891.45
915.81
936.6
926.52
931.14
937.65
944.37
954.45
954.66
951.93
937.65
929.25
942.48
924.63
910.14
906.36
913.92
910.98
891.24
890.4
886.62
881.79
883.68
898.8
918.75
949.83
954.66
950.88
960.33
970.83
979.23
979.23
987.84
984.06
969.78
971.67
950.88
939.54
910.35
886.83
880.11
870.66
861.21
860.16
864.78
858.48
869.61
903.63
964.11
1000.02
1035.09
1076.67
1085.91
1092.63
1087.8
1098.3
1078.56
1079.4
1045.17
1002.96
976.5
960.54
932.82
933.03
921.69
902.79
930.93
930.93
922.32
931.14
945.42
964.95
1001.91
1053.99
1121.82
1112.37
1120.14
1143.66
1137.78
1149.33
1140.93
1126.65
1081.29
1046.22
1025.43
1006.53
991.62
997.08
1000.86
973.35
951.72
941.64
923.58
902.58
916.86
934.71
972.72
1025.64
1082.13
1128.54
1158.99
1152.06
1158.78
1158.78
1155
1152.27
1144.5
1142.61
1126.65
1096.41
1086.12
1085.07
1069.95
1073.73
1063.44
1074.78
1071.84
1074.78
1007.58
1010.52
1035.93
1082.34
1125.81
1156.89
1185.03
1210.65
1183.35
1141.77
1139.04
1143.66
1109.64
1064.28
1043.49
1028.37
1001.07
1004.01
964.95
945.21
927.99
920.43
925.26
933.87
924.42
949.83
983.01
1032.36
1055.67
1057.77
1079.4
1094.31
1105.02
1099.14
1097.46
1092.63
1064.28
1038.87
1004.85
973.56
952.77
922.53
896.28
876.33
851.55
846.09
849.87
853.44
843.99
847.98
879.9
904.68
923.37
930.09
936.6
945.21
961.17
973.56
985.95
975.45
958.44
986.79
971.46
963.06
946.26
923.37
909.51
904.68
883.68
1546.44
1109.85
893.34
920.64
926.31
964.11
990.57
994.35
1013.46
1013.25
1025.64
1018.92
1019.76
1022.7
1007.58
1013.25
1012.2
985.95
987.63
977.34
970.62
965.16
958.44
961.17
942.27
933.66
933.87
939.54
957.6
998.13
1040.55
1088.85
1119.09
1121.82
1156.05
1168.23
1162.56
1156.89
1132.32
1124.76
1086.96
1038.87
1027.32
1004.85
980.07
964.11
967.05
951.09
937.65
954.66
947.1
946.89
960.54
980.28
1051.05
1125.81
1145.55
1195.53
1228.71
1210.86
1233.54
1235.22
1224.93
1195.53
1163.61
1136.31
1098.3
1055.67
1039.71
1015.98
994.35
961.17
948.15
932.82
929.25
943.32
973.56
1004.64
1063.23
1137.15
1151.01
1178.52
1185.24
1190.07
1201.2
1185.03
1163.61
1130.43
1099.98
1055.67
1030.26
1014.09
1015.14
1002.96
980.28
981.33
968.1
968.94
971.46
964.11
980.28
1016.19
1054.62
1107.75
1147.44
1157.94
1189.02
1239.84
1253.07
1242.78
1210.65
1184.4
1156.89
1113.42
1112.37
1108.8
1108.8
1101.03
1092.63
1068.06
1065.12
1059.45
1056.72
1065.33
1088.85
1126.65
1169.07
1225.98
1230.6
1240.05
1258.11
1265.46
1271.13
1253.07
1244.04
1228.71
1201.41
1146.39
1139.88
1137.99
1130.22
1102.92
1057.56
1014.3
998.97
1000.86
986.79
983.85
995.4
1003.8
1035.93
1065.33
1053.99
1049.16
1056.93
1045.38
1047.27
1046.22
1021.86
1017.03
1006.53
971.67
991.62
958.44
944.37
937.65
946.26
925.47
918.75
922.53
919.8
917.91
919.8
907.2
926.31
931.98
938.49
967.05
976.29
991.41
998.13
1001.91
992.46
980.28
969.57
961.17
938.7
931.98
903.84
912.03
899.85
897.96
896.07
893.34
891.45
888.3
903.63
939.54
1002.75
1047.27
1058.61
1097.25
1119.09
1153.95
1148.49
1153.11
1133.16
1107.75
1072.68
1015.14
994.35
983.01
1002.75
973.56
967.89
952.77
961.17
951.93
955.5
960.33
965.79
1018.92
1098.3
1125.81
1169.91
1160.46
1190.91
1197.63
1195.53
1172.01
1156.89
1122.03
1112.37
1089.69
1060.5
1038.66
1026.48
1008.42
976.5
960.33
950.88
956.55
955.71
976.29
1002.75
1039.71
1082.97
1113.42
1155
1143.66
1155
1149.33
1162.56
1166.34
1139.88
1128.54
1108.8
1075.62
1043.49
1034.88
1024.59
1018.71
990.57
968.73
966.84
956.55
966
969.78
985.74
1022.7
1069.11
1126.65
1144.71
1150.17
1164.45
1165.29
1153.32
1149.33
1135.05
1117.41
1085.91
1060.5
1041.39
1050.21
1023.54
1011.36
985.74
971.67
967.68
957.6
964.11
960.54
971.67
1013.46
1044.33
1087.8
1122.87
1149.54
1143.45
1140.72
1127.49
1111.53
1093.68
1086.12
1054.62
1018.92
1022.7
980.07
940.59
939.54
918.54
896.91
905.31
898.17
894.18
887.46
900.69
926.31
951.72
1000.86
981.96
975.45
973.56
969.78
951.72
936.6
931.98
922.32
930.93
938.7
974.61
947.94
935.55
933.03
930.09
927.36
930.09
911.4
913.08
913.08
916.86
940.38
955.71
957.6
952.98
962.01
981.12
1017.03
1010.31
1005.69
1002.75
997.08
1009.47
979.23
969.78
942.48
941.43
939.54
947.94
936.81
931.14
926.52
921.48
914.13
920.85
974.61
1025.64
1060.5
1110.69
1150.17
1174.74
1167.18
1167.39
1137.99
1119.09
1111.53
1094.52
1041.6
1024.59
1001.07
983.01
970.62
956.55
942.27
947.1
940.38
907.41
906.36
924.63
965.79
982.17
1049.16
1078.56
1089.9
1123.71
1122.87
1106.91
1103.97
1093.47
1057.77
1023.54
984.9
967.89
964.32
960.12
937.65
928.2
903.63
903.63
894.18
899.85
903.63
941.43
957.6
932.82
1035.93
1072.68
1120.14
1137.99
1152.27
1161.72
1140.93
1127.49
1091.79
1096.41
1042.44
1014.3
998.97
993.51
983.85
973.56
958.44
955.5
951.93
969.99
968.73
995.19
1036.77
1072.89
1106.91
1128.75
1165.5
1163.61
1155
1148.28
1120.98
1127.7
1119.09
1092.63
1079.4
1051.89
1040.55
1034.88
1023.75
1004.64
987.84
977.34
963.06
939.54
938.7
966
990.57
1024.59
1077.51
1081.29
1069.95
1079.4
1088.01
1096.41
1071
1057.56
1034.88
994.35
948.15
931.14
907.41
897.96
895.23
871.29
855.33
850.5
851.55
860.16
846.93
860.16
879.9
900.9
930.3
913.92
930.09
936.81
925.26
923.37
914.13
917.7
920.64
913.08
909.3
897.96
882.84
891.45
882
881.79
866.67
857.22
857.22
885.78
888.51
899.85
918.96
947.94
933.87
914.97
924.42
931.98
926.31
905.52
907.41
901.53
900.9
930.3
918.75
907.2
913.29
882.84
879.9
879.9
872.55
870.66
855.54
863.1
873.6
881.79
940.38
1010.31
1047.27
1045.38
1077.3
1079.4
1075.41
1073.73
1041.6
1047.27
1013.25
967.68
907.2
894.18
888.51
902.58
879.27
897.96
894.18
890.4
899.01
889.35
902.79
917.7
959.49
1020.81
1068.9
1090.95
1090.74
1094.52
1099.14
1076.67
1071.84
1070.79
1020.81
973.56
942.27
926.31
927.36
917.07
914.76
883.89
877.38
887.46
905.52
937.65
911.19
931.98
1021.86
1065.12
1112.37
1119.09
1125.6
1118.25
1125.6
1137.99
1176.84
1291.92
1236.06
1187.97
1148.28
1114.26
1090.74
1071.84
1083.18
1000.23
983.85
984.69
991.41
938.49
931.77
935.55
951.72
975.66
991.62
951.72
951.72
1000.02
1024.38
1029.42
1032.99
1030.26
1031.1
1032.99
935.55
876.33
904.47
968.94
931.14
921.69
910.14
920.64
907.62
905.31
911.19
946.26
982.17
1006.53
1020.81
1017.03
1031.1
1077.51
1101.03
1101.24
1083.39
1067.22
1049.16
1020.81
1002.96
996.24
998.13
969.78
963.27
962.22
949.83
941.43
946.26
933.03
931.77
947.1
971.67
999.18
1006.53
1022.91
1016.19
1019.97
1019.97
1018.92
1001.91
994.35
980.07
976.5
963.06
959.28
955.71
909.3
878.22
881.79
859.11
848.82
862.89
852.6
852.39
866.88
899.01
913.92
933.03
931.98
912.87
917.91
903.42
914.13
921.48
909.51
903.63
901.74
914.13
908.46
903.63
907.41
875.28
879.9
862.05
859.32
855.33
868.77
868.56
924.42
953.82
925.47
951.72
967.89
980.28
955.71
961.38
934.71
934.92
933.87
1007.58
1001.07
947.94
923.58
898.8
900.9
893.34
882.63
916.02
916.86
937.65
929.04
939.54
948.99
980.07
1048.32
1080.24
1090.74
1095.57
1140.09
1139.67
1133.16
1117.2
1113.42
1075.41
1041.6
1039.71
1001.91
985.74
952.77
941.43
933.87
924.42
926.52
916.86
882
876.33
902.58
952.77
1008.42
1043.49
1065.33
1057.56
1095.57
1090.74
1106.91
1095.36
1069.95
1059.45
1052.94
1016.19
981.12
967.89
970.62
967.05
955.71
905.52
885.78
880.74
877.17
859.32
885.57
920.64
988.68
1009.47
1045.38
1059.45
1062.18
1052.73
1063.44
1045.17
1051.05
1023.75
990.57
979.23
967.89
938.7
897.96
890.4
858.27
831.81
845.88
851.55
845.04
851.55
866.67
931.77
980.07
1045.59
1073.52
1073.73
1085.91
1086.96
1069.95
1061.55
1052.94
1013.25
988.47
937.65
929.25
916.86
904.47
891.24
886.62
861
825.93
806.19
802.62
807.24
817.53
855.33
876.12
900.69
901.53
902.58
906.36
884.73
877.38
861
882
870.45
863.1
882.84
868.77
847.98
848.61
821.31
814.8
820.47
817.74
820.47
828.03
815.85
834.75
864.78
863.94
891.45
913.08
935.76
928.2
914.13
914.13
891.24
893.97
883.89
904.68
885.57
884.73
878.22
888.51
867.93
865.83
851.55
870.66
874.44
869.61
872.55
883.89
921.48
956.55
1067.01
1093.47
1102.08
1088.01
1080.45
1081.5
1080.45
1085.91
1052.73
1021.86
979.23
961.17
951.93
981.12
960.33
929.04
914.97
922.53
905.31
906.57
921.69
934.92
971.88
1046.43
1075.83
1100.19
1095.36
1103.97
1102.92
1105.02
1112.58
1091.79
1071.63
1052.1
1021.02
983.85
952.77
946.26
934.92
922.74
893.34
884.94
886.62
886.62
887.67
919.8
941.64
976.5
1035.93
1085.07
1114.26
1122.03
1137.78
1127.49
1105.02
1110.48
1085.91
1070.79
1044.33
1004.85
972.72
966
952.77
955.71
951.93
964.11
967.05
947.94
936.81
968.94
1004.85
1042.65
1063.44
1077.51
1111.53
1129.38
1145.55
1138.2
1143.87
1123.92
1095.57
1041.39
1013.25
1021.86
991.62
959.49
942.27
938.7
908.25
906.36
887.67
880.11
881.79
933.87
955.5
988.68
1027.32
1059.66
1079.4
1102.29
1117.2
1135.89
1131.27
1116.36
1087.8
1056.93
1032.15
1012.2
990.57
988.68
969.78
951.72
948.99
943.32
931.14
924.42
923.58
933.87
961.17
976.5
979.23
1005.69
1044.33
1068.06
1067.22
1044.33
1038.87
1032.99
1013.25
1016.19
997.08
993.3
982.17
971.67
967.89
966.21
952.77
959.28
942.27
937.65
951.93
966.84
979.23
989.73
983.22
1002.12
1014.93
1040.55
1067.22
1081.08
1045.38
1019.76
988.68
985.95
995.19
988.68
969.78
956.55
963.06
958.44
947.1
947.1
948.15
941.43
944.37
973.56
1001.07
1057.77
1094.52
1120.14
1138.83
1145.55
1152.06
1147.44
1184.19
1185.24
1147.65
1115.31
1080.24
1065.33
1067.01
1059.45
1073.73
1111.53
1118.25
1095.36
854.28
1029.21
983.01
1024.59
1038.87
1082.34
1119.09
1136.1
1126.65
1141.77
1147.44
1136.94
1127.49
1125.6
1113.21
1077.51
1041.81
1041.6
1010.31
983.85
981.96
995.19
964.11
958.44
913.08
899.85
891.45
922.74
951.72
986.79
1025.43
1036.98
1058.61
1071
1068.9
1080.24
1051.05
1053.15
1010.52
977.34
935.76
936.81
916.86
916.02
919.59
909.3
892.29
883.68
888.51
887.46
906.57
906.57
1004.85
1036.98
1095.57
1111.74
1137.78
1160.67
1157.73
1156.05
1148.49
1142.82
1130.43
1095.57
1048.11
1050.21
1015.14
994.35
975.66
958.44
938.49
933.03
925.26
922.74
931.14
914.97
956.55
991.41
1022.49
1029.21
980.07
983.01
959.49
946.05
1030.05
1004.64
959.28
875.49
849.66
867.51
899.85
916.02
885.78
866.67
854.49
866.67
872.55
853.44
860.16
833.7
849.66
864.99
882.63
870.45
886.62
899.85
897.96
890.4
898.17
895.23
880.11
901.74
883.05
893.13
876.12
851.76
844.2
840.42
829.08
834.75
839.37
843.15
847.14
866.04
857.22
882
878.01
879.06
890.4
885.78
930.93
952.77
943.11
934.71
934.71
949.83
942.27
940.59
939.54
941.64
930.09
906.36
908.46
896.07
896.07
902.79
914.13
931.98
977.34
1025.43
1067.85
1089.9
1071
1075.62
1119.09
1110.69
1126.65
1108.59
1042.65
1019.76
981.33
976.29
964.32
945.21
944.37
952.56
927.15
930.93
910.14
907.2
928.2
943.32
981.96
1027.53
1076.67
1102.08
1117.2
1121.82
1119.09
1113.63
1109.43
1105.86
1090.74
1069.11
1029.21
1028.16
1008.63
968.1
948.15
934.08
887.67
877.38
884.73
886.62
882.63
907.62
952.77
990.36
1034.25
1048.11
1034.88
1073.73
1099.14
1096.2
1089.69
1095.36
1082.34
1039.5
1010.52
1033.2
1028.37
1017.03
1027.53
1042.44
1080.24
1081.29
1088.01
1087.8
1082.97
1107.75
1138.83
1178.73
1220.31
1230.6
1258.11
1279.74
1270.29
1263.57
1251.39
1222.83
1183.35
1159.62
1109.85
1086.12
1046.43
1018.92
1000.02
987.63
975.45
976.5
977.13
969.78
959.49
961.17
973.56
1011.36
1025.64
1041.81
1034.88
1051.89
1071.84
1092.63
1102.08
1096.41
1075.62
1068.9
1049.37
1032.99
1023.54
1011.36
1008.42
1006.74
993.3
935.76
911.4
894.18
878.22
884.94
901.74
918.96
928.2
925.47
926.31
934.71
953.61
952.98
945.21
934.71
929.04
917.91
914.97
923.58
917.91
913.92
908.46
913.92
893.34
895.02
897.96
882
878.01
893.13
917.91
934.08
940.59
948.99
956.55
968.94
991.62
1006.74
1007.58
1013.46
1015.14
1015.14
1026.48
988.68
938.49
918.54
886.62
884.52
887.46
885.57
890.4
885.78
894.39
903.42
938.49
991.41
1015.98
1045.38
1059.45
1080.24
1075.62
1075.62
1073.73
1057.56
1031.94
1011.57
987
968.94
959.49
936.81
932.82
939.54
933.87
927.36
935.76
939.54
935.76
950.04
981.12
1028.37
1087.8
1106.91
1114.26
1117.2
1101.03
1106.91
1118.25
1102.92
1085.07
1051.05
1015.98
994.35
971.67
947.31
947.94
942.48
923.37
926.31
926.1
925.26
938.7
962.01
1005.48
1071.84
1089.9
1133.37
1135.26
1128.33
1115.31
1115.31
1124.76
1119.93
1094.52
1051.05
1012.41
1021.86
996.24
985.74
975.45
